G:\BEAR_storage\User_Experiments\20220317_arneodo\file(1)_Region 3__0045.txt
Ring Energy (GeV): 2
Lifetime (hours): 16.3395
Scan beginning: 3/18/2022	9:59:24 PM
Ring current (mA): 272.24
Source position: x (mm): -0.004 x' (mrad): 0.006 y (mm): 0.006 y' (mrad): -0.002
Scan end: 3/18/2022	10:12:57 PM
Ring current (mA): 268.52
Source position: x (mm): -0.003 x' (mrad): 0.006 y (mm): 0.004 y' (mrad): -0.003

SCAN TYPE: PHOTON ENERGY VS VAR_1 VS VAR_2

FILE INFO: FILE INFO:

SCAN PARAMETERS
waiting time (ms): 1000
Number of scans: 1
Current scan number: 1
DARK OFF 
PREDARK OFF 

SCAN PARAMETERS
Regions configuration: 
number of regions: 7
Mirror grating scan: on
Timed acquisition: off
Region 1:
Initial energy (eV): 40.000000
Final energy (eV): 72.000000
Delta energy (eV): 1.000000
Deviation angle choice: Higher order rejection
Deviation angle (°): NaN
Al filter
G1200 channel
range keithley B 20 nA
range keithley C 2 uA
range keithley A 2 uA
Var_1: PsiC 0.000000
Var_2: PhiM0.000000
Bias CEM (V): 0.000000
Bias Keithley B (V): -30.000000
Name region: 
Region 2:
Initial energy (eV): 70.000000
Final energy (eV): 102.000000
Delta energy (eV): 1.000000
Deviation angle choice: Higher order rejection
Deviation angle (°): NaN
Si filter
G1200 channel
range keithley B 20 nA
range keithley C 2 uA
range keithley A 20 nA
Var_1: PsiC 0.000000
Var_2: PhiM0.000000
Bias CEM (V): 0.000000
Bias Keithley B (V): -30.000000
Name region: 
Region 3:
Initial energy (eV): 98.000000
Final energy (eV): 260.000000
Delta energy (eV): 1.000000
Deviation angle choice: Higher order rejection
Deviation angle (°): NaN
Full Beam
G1200 channel
range keithley B 20 nA
range keithley C 200 uA
range keithley A 200 nA
Var_1: PsiC 0.000000
Var_2: PhiM0.000000
Bias CEM (V): 0.000000
Bias Keithley B (V): -30.000000
Name region: 
Region 4:
Initial energy (eV): 255.000000
Final energy (eV): 320.000000
Delta energy (eV): 1.000000
Deviation angle choice: Higher order rejection
Deviation angle (°): NaN
filter Ag 0.6 um
G1200 channel
range keithley B 200 pA
range keithley C 2 uA
range keithley A 200 pA
Var_1: PsiC 0.000000
Var_2: PhiM0.000000
Bias CEM (V): 0.000000
Bias Keithley B (V): -30.000000
Name region: 
Region 5:
Initial energy (eV): 255.000000
Final energy (eV): 320.000000
Delta energy (eV): 1.000000
Deviation angle choice: Higher order rejection
Deviation angle (°): NaN
Full Beam
G1200 channel
range keithley B 200 pA
range keithley C 2 uA
range keithley A 20 nA
Var_1: PsiC 0.000000
Var_2: PhiM0.000000
Bias CEM (V): 0.000000
Bias Keithley B (V): -30.000000
Name region: 
Region 6:
Initial energy (eV): 315.000000
Final energy (eV): 1200.000000
Delta energy (eV): 5.000000
Deviation angle choice: Higher order rejection
Deviation angle (°): NaN
Full Beam
G1200 channel
range keithley B 20 nA
range keithley C 2 uA
range keithley A 20 nA
Var_1: PsiC 0.000000
Var_2: PhiM0.000000
Bias CEM (V): 0.000000
Bias Keithley B (V): -30.000000
Name region: 
Region 7:
Initial energy (eV): 1190.000000
Final energy (eV): 1500.000000
Delta energy (eV): 5.000000
Deviation angle choice: Higher order rejection
Deviation angle (°): NaN
filter Ag 0.6 um
G1200 channel
range keithley B 200 pA
range keithley C 2 uA
range keithley A 200 pA
Var_1: PsiC 0.000000
Var_2: PhiM0.000000
Bias CEM (V): 0.000000
Bias Keithley B (V): -30.000000
Name region: 

BEAR MONOCHROMATOR CONFIGURATION: 
Current Grating Position:     -31403.90
Current Mirror Position: 104329.5
Current Grating: G1200
P2 phiz position:  0.0000
Mono axis position: 25.0000
Current Photon Energy (eV): 270.002
Current Deviation Angle: 162.400
Vertical Exit Slits (um): 450.000
Exit slit y axis position: 2.2375
Horizontal Exit Slits (um):  889.156
Exit slit z axis position: 1.9229
Mitutoyo position (mm): 

Dose on sample (mJ/cm^2): NaN

ENERGY CALIBRATION:
offset grating G1200: yes
Delta 0 order G1200:  -800.0
offset grating G1800: not
Delta 0 order G1800:  0.0
offset grating GNIM: not
Delta 0 order GNIM:  0.0
ZERO ORDER POSITIONS:
Grating G1200: Mirror position:  4938.0
Grating position: -105355.0
Grating G1800: 
Mirror position:  4938.0
Grating position: -106345.0
Grating GNIM: 
Mirror position:  10000.0
Grating position: 227300.0

Initial filter: Full Beam

EXPERIMENTAL CHAMBER CONFIGURATION: 
PsiC (deg):   -0.000186
Phi Analyzer (degrees): 89.992308
Theta Manipulator (degrees): -44.000040
Theta Analyzer (degrees): -135.001468
PhiM (degrees): -0.004103
XM (mm): 0.000713
YM (mm): 19.932987
ZM (mm): (Warning: for kinetic energy scans, 
this parameter is given in the scan settings) 
-6.601438
TiltM (°): 0.000138

ELECTRON ANALYZER CONFIGURATION: 
Current Kinetik energy (eV): 35.0
Mode: DE = COST
Pass Energy (eV):  50.000
CEM: ON
Bias Front-Back CEM (V): 3499.561
Bias Back-Collector CEM (V): 100.874
Bias Retard-Front CEM: 100.087COIL VALUES
Ix (amps):2.820
Iy (amps): 6.789
Iz (amps): 37.337

POLARIZATION SELECTOR CONFIGURATION:
Psi1 (rad): -0.001665535
Psi2 (rad): 0.001417093
Z min position (mm): 46.599650
DZ position (mm): 18.599100
Zmin 0 (mm): 66.500000
DZ0 (mm): 53.000000

BEAM SELECTOR CONFIGURATION:
Zmin position (mm): NaN
DZ position (mm): NaN
Y+ position (mm): NaN
Y- position (mm): NaN

CHANNEL ELECTRON MULTIPLIER CONFIGURATION:
CEM configured: OFF
Bias CEM: 0.000000

FLUORESCENCE DETECTOR CONFIGURATION:
Not configured

LUMINESCENCE MONOCHROMATOR CONFIGURATION:
Optical fiber position (mm): 0.000000
Optical fiber Switch inside: OFF
Optical fiber Switch outside: ON
Monochromator wavelength (A): 0.000000
Limit Switches: ON

I0 MONITOR PARAMETERS:
I0 detector position(mm): -0.000000E+0
Lower switch: OFF
Upper switch: OFF
Valve status:open

PRESSURE PARAMETERS:
Monitor chamber pressure (mbar): 8.911e-10
Experimental chamber pressure -ION GAUGE-(mbar): 0.000000E+0

XMCD PARAMETERS:
Xmcd OFF
Xmcd Direction -
Xmcd current (A): 0.000000

Gated scan off

Instrument 1: AMMETER KEITHLEY 6517A B
Measure type: Current
range type: set range value
range value (ampere):  200 pA
Integration time:  set NPLC value
NPLC value: 10.000
Digital filter count: 2
SAMPLE BIAS (V): -30.000
Vsource: ON
Output Voltage value: 30.000
Vsource range: 1000 V

Range Keithley B changed to 20 nA

Range Keithley B changed to 200 pA

Range Keithley B changed to 20 nA

Range Keithley B changed to 200 pA

Range Keithley B changed to 20 nA

Range Keithley B changed to 200 pA

Range Keithley B changed to 20 nA

Range Keithley B changed to 200 nA

Range Keithley B changed to 200 pA

Range Keithley B changed to 20 nA

Range Keithley B changed to 200 pA

Range Keithley B changed to 20 nA

Range Keithley B changed to 200 pA

Range Keithley B changed to 20 nA

Range Keithley B changed to 200 pA

Range Keithley B changed to 20 nA

Range Keithley B changed to 200 pA

Range Keithley B changed to 20 nA

Range Keithley B changed to 200 pA

Range Keithley B changed to 20 nA

Range Keithley B changed to 200 pA

Range Keithley B changed to 20 nA

Range Keithley B changed to 200 pA

Instrument 2: AMMETER KEITHLEY 6517A A
Measure type: Current
range type: set range value
range value (ampere):  200 nA
Integration time:  set NPLC value
NPLC value: 10.000
Digital filter count: 2
Vsource: OFF
Output Voltage value: -0.000
Vsource range: 100 V
Trigger source: bus

Range Keithley A changed to 20 nA

Range Keithley A changed to 200 nA

Range Keithley A changed to 200 pA

Range Keithley A changed to 20 nA

Range Keithley A changed to 200 pA

Range Keithley A changed to 20 nA

Range Keithley A changed to 200 nA

Range Keithley A changed to 200 pA

Range Keithley A changed to 20 nA

Range Keithley A changed to 200 pA

Range Keithley A changed to 20 nA

Range Keithley A changed to 200 nA

Range Keithley A changed to 200 pA

Range Keithley A changed to 20 nA

Range Keithley A changed to 200 pA

Range Keithley A changed to 20 nA

Range Keithley A changed to 200 pA

Range Keithley A changed to 20 nA

Range Keithley A changed to 200 pA

Range Keithley A changed to 20 nA

Range Keithley A changed to 200 pA

Range Keithley A changed to 20 nA

Range Keithley A changed to 200 nA

Range Keithley A changed to 200 pA

Range Keithley A changed to 20 nA

Range Keithley A changed to 200 pA

Range Keithley A changed to 20 nA

Range Keithley A changed to 200 nA

Range Keithley A changed to 200 pA

Range Keithley A changed to 20 nA

Range Keithley A changed to 200 nA

Range Keithley A changed to 200 pA

Range Keithley A changed to 20 nA

Range Keithley A changed to 200 pA

Range Keithley A changed to 20 nA

Range Keithley A changed to 200 pA

Range Keithley A changed to 20 nA

Range Keithley A changed to 200 nA

Range Keithley A changed to 200 pA

Range Keithley A changed to 20 nA

Range Keithley A changed to 200 pA

Range Keithley A changed to 20 nA

Range Keithley A changed to 200 nA

Range Keithley A changed to 20 nA

Range Keithley A changed to 200 nA

Range Keithley A changed to 200 pA

Range Keithley A changed to 20 nA

Range Keithley A changed to 200 nA

Range Keithley A changed to 2 uA

Range Keithley A changed to 20 nA

Range Keithley A changed to 200 nA

Range Keithley A changed to 2 uA

Range Keithley A changed to 20 nA

Range Keithley A changed to 200 nA

Range Keithley A changed to 200 pA

Range Keithley A changed to 2 uA

Range Keithley A changed to 20 nA

Range Keithley A changed to 200 nA

Range Keithley A changed to 200 pA

Instrument 3: AMMETER KEITHLEY 6517A C 
Measure type: Current
range type: set range value
range value (ampere):  2 uA
Integration time:  set NPLC value
NPLC value: 10.000
Digital filter count: 2
Vsource: OFF
Output Voltage value: -0.000
Vsource range: 100 V
Trigger source: bus


Range Keithley C changed to 20 uA


Range Keithley C changed to 2 uA


Range Keithley C changed to 200 uA


Range Keithley C changed to 2 uA


________________________________________________________________________________

RelativeTime (msec)	Photon Energy	Var_1	Var_2	INSTR_1_Sample with Bias _(ampere ) 	INSTR_2_Monitor IM_(ampere)  	INSTR_3_Diode A3_(ampere)	I_BPM_sum (Amps)	
________________________________________________________________________________

2.58996000E+5	9.80008599E+1	0.00000000E+0	0.00000000E+0	-3.50000000E-13	1.70740000E-8	1.00050000E-5	7.91465794E-5
2.62840000E+5	9.89988265E+1	0.00000000E+0	0.00000000E+0	-1.10000000E-13	1.77250000E-8	1.04518000E-5	7.94826960E-5
2.66016000E+5	1.00000181E+2	0.00000000E+0	0.00000000E+0	-6.10000000E-13	1.83150000E-8	1.08500000E-5	7.90800904E-5
2.69135000E+5	1.00999480E+2	0.00000000E+0	0.00000000E+0	-4.80000000E-13	1.88493000E-8	1.12114000E-5	7.90135865E-5
2.72257000E+5	1.01999883E+2	0.00000000E+0	0.00000000E+0	-4.40000000E-13	1.94609000E-8	1.14348000E-5	7.93533330E-5
2.75410000E+5	1.03000020E+2	0.00000000E+0	0.00000000E+0	1.00000000E-14	2.02118000E-8	1.17084000E-5	7.90747051E-5
2.78569000E+5	1.03999500E+2	0.00000000E+0	0.00000000E+0	-3.90000000E-13	2.09955000E-8	1.22248000E-5	7.87355129E-5
2.81706000E+5	1.05000098E+2	0.00000000E+0	0.00000000E+0	-4.70000000E-13	2.17956000E-8	1.27622000E-5	7.91641747E-5
2.84829000E+5	1.05999984E+2	0.00000000E+0	0.00000000E+0	-6.80000000E-13	2.26889000E-8	1.34288000E-5	7.90960674E-5
2.87962000E+5	1.06999917E+2	0.00000000E+0	0.00000000E+0	-4.70000000E-13	2.37026000E-8	1.39124000E-5	7.93621396E-5
2.91154000E+5	1.08000044E+2	0.00000000E+0	0.00000000E+0	-5.40000000E-13	2.47669000E-8	1.42199000E-5	7.91176980E-5
2.94282000E+5	1.09000311E+2	0.00000000E+0	0.00000000E+0	-2.90000000E-13	2.56659000E-8	1.47054000E-5	7.87567292E-5
2.97372000E+5	1.09999725E+2	0.00000000E+0	0.00000000E+0	-5.00000000E-13	2.66842000E-8	1.49256000E-5	7.91760509E-5
3.00389000E+5	1.10999666E+2	0.00000000E+0	0.00000000E+0	-1.30000000E-13	2.75234000E-8	1.56419000E-5	7.87635301E-5
3.03383000E+5	1.11999394E+2	0.00000000E+0	0.00000000E+0	-5.60000000E-13	2.83257000E-8	1.64267000E-5	7.91762029E-5
3.06434000E+5	1.13000486E+2	0.00000000E+0	0.00000000E+0	-1.70000000E-13	2.91536000E-8	1.69466000E-5	7.89572303E-5
3.09393000E+5	1.13999365E+2	0.00000000E+0	0.00000000E+0	-1.20000000E-13	2.99416000E-8	1.73896000E-5	7.93513303E-5
3.12403000E+5	1.15000145E+2	0.00000000E+0	0.00000000E+0	-2.70000000E-13	3.06731000E-8	1.78012000E-5	7.92220896E-5
3.15423000E+5	1.16000883E+2	0.00000000E+0	0.00000000E+0	-1.30000000E-13	3.13654000E-8	1.81423000E-5	7.91802918E-5
3.18421000E+5	1.16999532E+2	0.00000000E+0	0.00000000E+0	-6.40000000E-13	3.20027000E-8	1.84322000E-5	7.92154049E-5
3.21434000E+5	1.17999317E+2	0.00000000E+0	0.00000000E+0	-2.60000000E-13	3.25054000E-8	1.87304000E-5	7.93199276E-5
3.24405000E+5	1.19000428E+2	0.00000000E+0	0.00000000E+0	-2.80000000E-13	3.28345000E-8	1.89984000E-5	7.92978143E-5
3.27476000E+5	1.20000224E+2	0.00000000E+0	0.00000000E+0	-3.70000000E-13	3.30202000E-8	1.91947000E-5	7.89240007E-5
3.30444000E+5	1.20999649E+2	0.00000000E+0	0.00000000E+0	-3.30000000E-13	3.31208000E-8	1.93206000E-5	7.90838068E-5
3.33491000E+5	1.21999728E+2	0.00000000E+0	0.00000000E+0	-2.10000000E-13	3.31702000E-8	1.93844000E-5	7.90212785E-5
3.36488000E+5	1.22999780E+2	0.00000000E+0	0.00000000E+0	-5.00000000E-13	3.31559000E-8	1.93770000E-5	7.92415505E-5
3.39489000E+5	1.23999695E+2	0.00000000E+0	0.00000000E+0	-4.90000000E-13	3.30665000E-8	1.92947000E-5	7.90495639E-5
3.42485000E+5	1.25000297E+2	0.00000000E+0	0.00000000E+0	-7.40000000E-13	3.29156000E-8	1.91529000E-5	7.87871902E-5
3.45505000E+5	1.25999656E+2	0.00000000E+0	0.00000000E+0	-7.10000000E-13	3.27065000E-8	1.89632000E-5	7.91810816E-5
3.48453000E+5	1.26999867E+2	0.00000000E+0	0.00000000E+0	-5.40000000E-13	3.24244000E-8	1.87262000E-5	7.89898132E-5
3.51322000E+5	1.27997679E+2	0.00000000E+0	0.00000000E+0	-7.30000000E-13	3.20605000E-8	1.84497000E-5	7.91944568E-5
3.54292000E+5	1.29002440E+2	0.00000000E+0	0.00000000E+0	-3.70000000E-13	3.16213000E-8	1.81443000E-5	7.92145466E-5
3.57188000E+5	1.29999119E+2	0.00000000E+0	0.00000000E+0	-3.20000000E-13	3.11224000E-8	1.78211000E-5	7.91256164E-5
3.60137000E+5	1.31001173E+2	0.00000000E+0	0.00000000E+0	-9.00000000E-14	3.05510000E-8	1.74706000E-5	7.89586966E-5
3.62987000E+5	1.31998534E+2	0.00000000E+0	0.00000000E+0	-4.10000000E-13	2.99022000E-8	1.70905000E-5	7.88618957E-5
3.66592000E+5	1.33000392E+2	0.00000000E+0	0.00000000E+0	-1.10000000E-13	2.91748000E-8	1.66792000E-5	7.92375838E-5
3.69508000E+5	1.33999865E+2	0.00000000E+0	0.00000000E+0	-2.50000000E-13	2.83666000E-8	1.62335000E-5	7.90358608E-5
3.72395000E+5	1.35000153E+2	0.00000000E+0	0.00000000E+0	-3.50000000E-13	2.74952000E-8	1.57586000E-5	7.91622465E-5
3.75265000E+5	1.36000861E+2	0.00000000E+0	0.00000000E+0	-2.50000000E-13	2.65802000E-8	1.52653000E-5	7.91438793E-5
3.78170000E+5	1.36998035E+2	0.00000000E+0	0.00000000E+0	-4.90000000E-13	2.56416000E-8	1.47643000E-5	7.91730021E-5
3.81055000E+5	1.38000934E+2	0.00000000E+0	0.00000000E+0	-2.10000000E-13	2.46713000E-8	1.42488000E-5	7.89149825E-5
3.83945000E+5	1.39001108E+2	0.00000000E+0	0.00000000E+0	-1.00000000E-13	2.36626000E-8	1.37118000E-5	7.90245150E-5
3.86807000E+5	1.39999276E+2	0.00000000E+0	0.00000000E+0	-2.80000000E-13	2.26078000E-8	1.31418000E-5	7.88518344E-5
3.89691000E+5	1.40999347E+2	0.00000000E+0	0.00000000E+0	-2.00000000E-13	2.14746000E-8	1.25183000E-5	7.90114437E-5
3.92605000E+5	1.41999502E+2	0.00000000E+0	0.00000000E+0	-4.90000000E-13	2.02712000E-8	1.18485000E-5	7.90397083E-5
3.95469000E+5	1.43000649E+2	0.00000000E+0	0.00000000E+0	-7.00000000E-14	1.90119000E-8	1.11401000E-5	7.91291689E-5
3.98358000E+5	1.44000061E+2	0.00000000E+0	0.00000000E+0	-4.20000000E-13	1.77095000E-8	1.04069000E-5	7.89423411E-5
4.01212000E+5	1.45000323E+2	0.00000000E+0	0.00000000E+0	-2.50000000E-13	1.63866000E-8	9.65500000E-6	7.90817146E-5
4.04092000E+5	1.46000255E+2	0.00000000E+0	0.00000000E+0	-1.60000000E-13	1.50735000E-8	8.89940000E-6	7.88298522E-5
4.06997000E+5	1.46999182E+2	0.00000000E+0	0.00000000E+0	-2.30000000E-13	1.37916000E-8	8.15410000E-6	7.93302899E-5
4.09874000E+5	1.47999355E+2	0.00000000E+0	0.00000000E+0	-1.40000000E-13	1.25852000E-8	7.44810000E-6	7.87475620E-5
4.12747000E+5	1.48999668E+2	0.00000000E+0	0.00000000E+0	-4.80000000E-13	1.14499000E-8	6.78190000E-6	7.88299655E-5
4.15623000E+5	1.49998963E+2	0.00000000E+0	0.00000000E+0	-4.10000000E-13	1.03999000E-8	6.16410000E-6	7.90446346E-5
4.19190000E+5	1.50973848E+2	0.00000000E+0	0.00000000E+0	-3.90000000E-13	9.38150000E-9	5.56690000E-6	7.88591777E-5
4.22742000E+5	1.52020583E+2	0.00000000E+0	0.00000000E+0	-9.00000000E-14	8.72930000E-9	5.18590000E-6	7.95127695E-5
4.26307000E+5	1.53003860E+2	0.00000000E+0	0.00000000E+0	-3.30000000E-13	8.08990000E-9	4.81150000E-6	7.89733295E-5
4.29871000E+5	1.54001811E+2	0.00000000E+0	0.00000000E+0	-3.00000000E-13	7.47920000E-9	4.45350000E-6	7.91396653E-5
4.33463000E+5	1.54999089E+2	0.00000000E+0	0.00000000E+0	-3.70000000E-13	6.91980000E-9	4.12380000E-6	7.88463180E-5
4.37077000E+5	1.55999722E+2	0.00000000E+0	0.00000000E+0	-4.50000000E-13	6.43130000E-9	3.83320000E-6	7.89320801E-5
4.40592000E+5	1.56997462E+2	0.00000000E+0	0.00000000E+0	-3.10000000E-13	6.00250000E-9	3.57720000E-6	7.90598397E-5
4.44189000E+5	1.57998966E+2	0.00000000E+0	0.00000000E+0	-3.20000000E-13	5.61620000E-9	3.34680000E-6	7.88142060E-5
4.47686000E+5	1.58998073E+2	0.00000000E+0	0.00000000E+0	-2.60000000E-13	5.26020000E-9	3.13430000E-6	7.91371917E-5
4.51265000E+5	1.59995465E+2	0.00000000E+0	0.00000000E+0	-1.10000000E-13	4.93630000E-9	2.93610000E-6	7.92245304E-5
4.54747000E+5	1.60994525E+2	0.00000000E+0	0.00000000E+0	-1.60000000E-13	4.69020000E-9	2.78280000E-6	7.89465849E-5
4.58351000E+5	1.62002351E+2	0.00000000E+0	0.00000000E+0	-5.60000000E-13	4.44950000E-9	2.63100000E-6	7.90228759E-5
4.61970000E+5	1.63005899E+2	0.00000000E+0	0.00000000E+0	-2.60000000E-13	4.17790000E-9	2.46080000E-6	7.90680205E-5
4.65604000E+5	1.64001953E+2	0.00000000E+0	0.00000000E+0	-3.50000000E-13	3.88450000E-9	2.29390000E-6	7.85763983E-5
4.69140000E+5	1.65004378E+2	0.00000000E+0	0.00000000E+0	-1.50000000E-13	3.56550000E-9	2.11710000E-6	7.89639806E-5
4.72662000E+5	1.66000732E+2	0.00000000E+0	0.00000000E+0	-3.00000000E-14	3.26260000E-9	1.93950000E-6	7.92966371E-5
4.76195000E+5	1.66999108E+2	0.00000000E+0	0.00000000E+0	-1.20000000E-13	2.99490000E-9	1.77920000E-6	7.87444924E-5
4.79827000E+5	1.67997438E+2	0.00000000E+0	0.00000000E+0	-4.70000000E-13	2.76590000E-9	1.64150000E-6	7.89418821E-5
4.83361000E+5	1.68999033E+2	0.00000000E+0	0.00000000E+0	0.00000000E+0	2.56930000E-9	1.52210000E-6	7.87221675E-5
4.86977000E+5	1.69997591E+2	0.00000000E+0	0.00000000E+0	-3.80000000E-13	2.39860000E-9	1.41840000E-6	7.89758627E-5
4.90548000E+5	1.70993496E+2	0.00000000E+0	0.00000000E+0	-5.10000000E-13	2.26680000E-9	1.33880000E-6	7.86958103E-5
4.94167000E+5	1.71993675E+2	0.00000000E+0	0.00000000E+0	-6.50000000E-13	2.17630000E-9	1.28500000E-6	7.89124344E-5
4.97706000E+5	1.73008898E+2	0.00000000E+0	0.00000000E+0	-2.10000000E-13	2.07490000E-9	1.22500000E-6	7.88961862E-5
5.01240000E+5	1.74001841E+2	0.00000000E+0	0.00000000E+0	-6.00000000E-13	1.96210000E-9	1.15780000E-6	7.90817325E-5
5.04765000E+5	1.75001196E+2	0.00000000E+0	0.00000000E+0	-2.70000000E-13	1.84610000E-9	1.08800000E-6	7.88806562E-5
5.08386000E+5	1.76005413E+2	0.00000000E+0	0.00000000E+0	-7.10000000E-13	1.72540000E-9	1.01550000E-6	7.86354755E-5
5.11945000E+5	1.77000119E+2	0.00000000E+0	0.00000000E+0	-8.00000000E-14	1.62250000E-9	9.54100000E-7	7.87241702E-5
5.15519000E+5	1.77996637E+2	0.00000000E+0	0.00000000E+0	-2.30000000E-13	1.53800000E-9	9.03900000E-7	7.84169380E-5
5.19095000E+5	1.79000259E+2	0.00000000E+0	0.00000000E+0	-4.60000000E-13	1.46990000E-9	8.63900000E-7	7.87677412E-5
