G:\BEAR_storage\User_Experiments\20220317_arneodo\file(1)_Region 3__0066.txt
Ring Energy (GeV): 2
Lifetime (hours): 15.2392
Scan beginning: 3/21/2022	10:52:56 AM
Ring current (mA): 308.87
Source position: x (mm): 0.006 x' (mrad): 0 y (mm): 0 y' (mrad): 0.001
Scan end: 3/21/2022	11:09:50 AM
Ring current (mA): 309.58
Source position: x (mm): 0.006 x' (mrad): 0 y (mm): -0 y' (mrad): 0

SCAN TYPE: PHOTON ENERGY VS VAR_1 VS VAR_2

FILE INFO: FILE INFO:

SCAN PARAMETERS
waiting time (ms): 0
Number of scans: 1
Current scan number: 1
DARK OFF 
PREDARK OFF 

SCAN PARAMETERS
Regions configuration: 
number of regions: 6
Mirror grating scan: on
Timed acquisition: off
Region 1:
Initial energy (eV): 40.000000
Final energy (eV): 72.000000
Delta energy (eV): 1.000000
Deviation angle choice: Higher order rejection
Deviation angle (°): NaN
Al filter
G1200 channel
range keithley B 20 nA
range keithley C 200 nA
range keithley A 20 nA
Var_1: PsiC 0.000000
Var_2: PhiM0.000000
Bias CEM (V): 0.000000
Bias Keithley B (V): -30.000000
Name region: 
Region 2:
Initial energy (eV): 70.000000
Final energy (eV): 102.000000
Delta energy (eV): 1.000000
Deviation angle choice: Higher order rejection
Deviation angle (°): NaN
Si filter
G1200 channel
range keithley B 20 nA
range keithley C 200 nA
range keithley A 20 nA
Var_1: PsiC 0.000000
Var_2: PhiM0.000000
Bias CEM (V): 0.000000
Bias Keithley B (V): -30.000000
Name region: 
Region 3:
Initial energy (eV): 98.000000
Final energy (eV): 260.000000
Delta energy (eV): 1.000000
Deviation angle choice: Higher order rejection
Deviation angle (°): NaN
Full Beam
G1200 channel
range keithley B 20 nA
range keithley C 200 nA
range keithley A 200 nA
Var_1: PsiC 0.000000
Var_2: PhiM0.000000
Bias CEM (V): 0.000000
Bias Keithley B (V): -30.000000
Name region: 
Region 4:
Initial energy (eV): 255.000000
Final energy (eV): 320.000000
Delta energy (eV): 1.000000
Deviation angle choice: Higher order rejection
Deviation angle (°): NaN
filter Ag 0.6 um
G1200 channel
range keithley B 200 pA
range keithley C 200 nA
range keithley A 200 pA
Var_1: PsiC 0.000000
Var_2: PhiM0.000000
Bias CEM (V): 0.000000
Bias Keithley B (V): -30.000000
Name region: 
Region 5:
Initial energy (eV): 315.000000
Final energy (eV): 1200.000000
Delta energy (eV): 5.000000
Deviation angle choice: Higher order rejection
Deviation angle (°): NaN
Full Beam
G1200 channel
range keithley B 20 nA
range keithley C 200 nA
range keithley A 20 nA
Var_1: PsiC 0.000000
Var_2: PhiM0.000000
Bias CEM (V): 0.000000
Bias Keithley B (V): -30.000000
Name region: 
Region 6:
Initial energy (eV): 1190.000000
Final energy (eV): 1500.000000
Delta energy (eV): 5.000000
Deviation angle choice: Higher order rejection
Deviation angle (°): NaN
filter Ag 0.6 um
G1200 channel
range keithley B 200 pA
range keithley C 200 nA
range keithley A 200 pA
Var_1: PsiC 0.000000
Var_2: PhiM0.000000
Bias CEM (V): 0.000000
Bias Keithley B (V): -30.000000
Name region: 

BEAR MONOCHROMATOR CONFIGURATION: 
Current Grating Position:     -236072.00
Current Mirror Position: 2556.9
Current Grating: G1200
P2 phiz position:  0.0000
Mono axis position: 25.0000
Current Photon Energy (eV): 40.000
Current Deviation Angle: 155.000
Vertical Exit Slits (um): 100.000
Exit slit y axis position: 1.3625
Horizontal Exit Slits (um):  889.156
Exit slit z axis position: 1.9229
Mitutoyo position (mm): 

Dose on sample (mJ/cm^2): NaN

ENERGY CALIBRATION:
offset grating G1200: yes
Delta 0 order G1200:  -1100.0
offset grating G1800: not
Delta 0 order G1800:  0.0
offset grating GNIM: not
Delta 0 order GNIM:  0.0
ZERO ORDER POSITIONS:
Grating G1200: Mirror position:  4938.0
Grating position: -105355.0
Grating G1800: 
Mirror position:  4938.0
Grating position: -106345.0
Grating GNIM: 
Mirror position:  10000.0
Grating position: 227300.0

Initial filter: Full Beam

EXPERIMENTAL CHAMBER CONFIGURATION: 
PsiC (deg):   -0.000186
Phi Analyzer (degrees): 89.992308
Theta Manipulator (degrees): -44.000040
Theta Analyzer (degrees): -135.001468
PhiM (degrees): -0.002051
XM (mm): 0.000900
YM (mm): 7.891988
ZM (mm): (Warning: for kinetic energy scans, 
this parameter is given in the scan settings) 
-10.201488
TiltM (°): 0.000138

ELECTRON ANALYZER CONFIGURATION: 
Current Kinetik energy (eV): 35.0
Mode: DE = COST
Pass Energy (eV):  100.000
CEM: ON
Bias Front-Back CEM (V): 3499.561
Bias Back-Collector CEM (V): 100.874
Bias Retard-Front CEM: 100.087COIL VALUES
Ix (amps):2.820
Iy (amps): 6.789
Iz (amps): 37.337

POLARIZATION SELECTOR CONFIGURATION:
Psi1 (rad): -0.001665535
Psi2 (rad): 0.001417093
Z min position (mm): 46.599650
DZ position (mm): 18.599100
Zmin 0 (mm): 66.500000
DZ0 (mm): 53.000000

BEAM SELECTOR CONFIGURATION:
Zmin position (mm): NaN
DZ position (mm): NaN
Y+ position (mm): NaN
Y- position (mm): NaN

CHANNEL ELECTRON MULTIPLIER CONFIGURATION:
CEM configured: OFF
Bias CEM: 0.000000

FLUORESCENCE DETECTOR CONFIGURATION:
Not configured

LUMINESCENCE MONOCHROMATOR CONFIGURATION:
Optical fiber position (mm): 0.000000
Optical fiber Switch inside: OFF
Optical fiber Switch outside: ON
Monochromator wavelength (A): 0.000000
Limit Switches: ON

I0 MONITOR PARAMETERS:
I0 detector position(mm): -1.924999E+2
Lower switch: OFF
Upper switch: OFF
Valve status:open

PRESSURE PARAMETERS:
Monitor chamber pressure (mbar): 9.955e-10
Experimental chamber pressure -ION GAUGE-(mbar): 0.000000E+0

XMCD PARAMETERS:
Xmcd OFF
Xmcd Direction -
Xmcd current (A): 0.000000

Gated scan off

Instrument 1: AMMETER KEITHLEY 6517A B
Measure type: Current
range type: set range value
range value (ampere):  200 pA
Integration time:  set NPLC value
NPLC value: 10.000
Digital filter count: 2
SAMPLE BIAS (V): -30.000
Vsource: ON
Output Voltage value: 30.000
Vsource range: 1000 V

Range Keithley B changed to 20 nA

Range Keithley B changed to 200 pA

Instrument 2: AMMETER KEITHLEY 6517A A
Measure type: Current
range type: set range value
range value (ampere):  200 nA
Integration time:  set NPLC value
NPLC value: 10.000
Digital filter count: 2
Vsource: OFF
Output Voltage value: -0.000
Vsource range: 100 V
Trigger source: bus

Range Keithley A changed to 20 nA

Range Keithley A changed to 200 nA

Range Keithley A changed to 200 pA

Range Keithley A changed to 20 nA

Range Keithley A changed to 200 pA

Range Keithley A changed to 20 nA

Range Keithley A changed to 200 nA

Range Keithley A changed to 200 pA

Range Keithley A changed to 20 nA

Range Keithley A changed to 200 pA

Range Keithley A changed to 20 nA

Range Keithley A changed to 200 nA

Range Keithley A changed to 200 pA

Range Keithley A changed to 20 nA

Range Keithley A changed to 200 pA

Range Keithley A changed to 20 nA

Range Keithley A changed to 200 pA

Range Keithley A changed to 20 nA

Range Keithley A changed to 200 pA

Range Keithley A changed to 20 nA

Range Keithley A changed to 200 pA

Range Keithley A changed to 20 nA

Range Keithley A changed to 200 nA

Range Keithley A changed to 200 pA

Range Keithley A changed to 20 nA

Range Keithley A changed to 200 pA

Range Keithley A changed to 20 nA

Range Keithley A changed to 200 nA

Range Keithley A changed to 200 pA

Range Keithley A changed to 20 nA

Range Keithley A changed to 200 nA

Range Keithley A changed to 200 pA

Range Keithley A changed to 20 nA

Range Keithley A changed to 200 pA

Range Keithley A changed to 20 nA

Range Keithley A changed to 200 pA

Range Keithley A changed to 20 nA

Range Keithley A changed to 200 nA

Range Keithley A changed to 200 pA

Range Keithley A changed to 20 nA

Range Keithley A changed to 200 pA

Range Keithley A changed to 20 nA

Range Keithley A changed to 200 nA

Range Keithley A changed to 20 nA

Range Keithley A changed to 200 nA

Range Keithley A changed to 200 pA

Range Keithley A changed to 20 nA

Range Keithley A changed to 200 nA

Range Keithley A changed to 2 uA

Range Keithley A changed to 20 nA

Range Keithley A changed to 200 nA

Range Keithley A changed to 2 uA

Range Keithley A changed to 20 nA

Range Keithley A changed to 200 nA

Range Keithley A changed to 200 pA

Range Keithley A changed to 2 uA

Range Keithley A changed to 20 nA

Range Keithley A changed to 200 nA

Range Keithley A changed to 200 pA

Range Keithley A changed to 20 nA

Range Keithley A changed to 2 uA

Range Keithley A changed to 20 nA

Range Keithley A changed to 200 nA

Range Keithley A changed to 20 nA

Range Keithley A changed to 200 nA

Range Keithley A changed to 200 pA

Range Keithley A changed to 2 uA

Range Keithley A changed to 20 nA

Range Keithley A changed to 200 nA

Range Keithley A changed to 20 nA

Range Keithley A changed to 200 nA

Range Keithley A changed to 200 pA

Range Keithley A changed to 20 nA

Range Keithley A changed to 200 nA

Range Keithley A changed to 20 nA

Range Keithley A changed to 200 nA

Range Keithley A changed to 200 pA

Range Keithley A changed to 20 nA

Range Keithley A changed to 200 nA

Range Keithley A changed to 200 pA

Range Keithley A changed to 20 nA

Range Keithley A changed to 200 pA

Range Keithley A changed to 20 nA

Range Keithley A changed to 200 pA

Range Keithley A changed to 20 nA

Range Keithley A changed to 200 pA

Range Keithley A changed to 20 nA

Range Keithley A changed to 200 pA

Range Keithley A changed to 20 nA

Range Keithley A changed to 200 nA

Range Keithley A changed to 2 uA

Range Keithley A changed to 20 uA

Range Keithley A changed to 200 uA

Range Keithley A changed to 20 nA

Range Keithley A changed to 200 nA

Range Keithley A changed to 200 pA

Instrument 3: COUNTER ORTEC 996Integration time (sec): 1.000


Range Keithley C changed to 200 nA


________________________________________________________________________________

RelativeTime (msec)	Photon Energy	Var_1	Var_2	INSTR_1_Sample with Bias _(ampere ) 	INSTR_2_Monitor IM_(ampere)  	INSTR_3_Ortec 996 counts_(counts)	I_BPM_sum (Amps)	
________________________________________________________________________________

3.17105000E+5	9.80010492E+1	0.00000000E+0	0.00000000E+0	5.14300000E-11	4.56230000E-9	1.20100000E+3	8.90284615E-5
3.21981000E+5	9.89982471E+1	0.00000000E+0	0.00000000E+0	5.26000000E-11	4.75000000E-9	1.26500000E+3	8.90272396E-5
3.25982000E+5	1.00000378E+2	0.00000000E+0	0.00000000E+0	5.36900000E-11	4.90890000E-9	1.28700000E+3	8.95453351E-5
3.30089000E+5	1.01000485E+2	0.00000000E+0	0.00000000E+0	5.47100000E-11	5.05370000E-9	1.30300000E+3	8.94438969E-5
3.34118000E+5	1.01999883E+2	0.00000000E+0	0.00000000E+0	5.58600000E-11	5.22230000E-9	1.26100000E+3	8.95874816E-5
3.38140000E+5	1.03000648E+2	0.00000000E+0	0.00000000E+0	5.73700000E-11	5.42740000E-9	1.31400000E+3	8.92642098E-5
3.42186000E+5	1.03999927E+2	0.00000000E+0	0.00000000E+0	5.84400000E-11	5.63900000E-9	1.32100000E+3	8.93262374E-5
3.46204000E+5	1.05000098E+2	0.00000000E+0	0.00000000E+0	5.97400000E-11	5.85700000E-9	1.34200000E+3	8.94491720E-5
3.50220000E+5	1.06000206E+2	0.00000000E+0	0.00000000E+0	6.31400000E-11	6.10110000E-9	1.42100000E+3	8.91909259E-5
3.54276000E+5	1.06999917E+2	0.00000000E+0	0.00000000E+0	7.05300000E-11	6.38190000E-9	1.54200000E+3	8.90382694E-5
3.58311000E+5	1.08000044E+2	0.00000000E+0	0.00000000E+0	7.56800000E-11	6.66290000E-9	1.60000000E+3	8.88764219E-5
3.62222000E+5	1.08999375E+2	0.00000000E+0	0.00000000E+0	7.96100000E-11	6.90940000E-9	1.70500000E+3	8.91591536E-5
3.66255000E+5	1.10001156E+2	0.00000000E+0	0.00000000E+0	8.31300000E-11	7.18130000E-9	1.75200000E+3	8.94705551E-5
3.70129000E+5	1.10999423E+2	0.00000000E+0	0.00000000E+0	8.15200000E-11	7.40340000E-9	1.68200000E+3	8.92785417E-5
3.74049000E+5	1.11999182E+2	0.00000000E+0	0.00000000E+0	8.02200000E-11	7.62200000E-9	1.82000000E+3	8.93544572E-5
3.77931000E+5	1.13000469E+2	0.00000000E+0	0.00000000E+0	8.11000000E-11	7.84530000E-9	1.78700000E+3	8.95014512E-5
3.81850000E+5	1.14000116E+2	0.00000000E+0	0.00000000E+0	8.33200000E-11	8.05600000E-9	1.87900000E+3	8.92009335E-5
3.85746000E+5	1.15000405E+2	0.00000000E+0	0.00000000E+0	8.51400000E-11	8.25210000E-9	1.88400000E+3	8.93774258E-5
3.89631000E+5	1.16000636E+2	0.00000000E+0	0.00000000E+0	8.77100000E-11	8.43880000E-9	1.87400000E+3	8.93124180E-5
3.93523000E+5	1.17000072E+2	0.00000000E+0	0.00000000E+0	8.90500000E-11	8.60710000E-9	1.87300000E+3	8.92586069E-5
3.97422000E+5	1.17999866E+2	0.00000000E+0	0.00000000E+0	8.85900000E-11	8.73630000E-9	1.88700000E+3	8.91505675E-5
4.01331000E+5	1.18999591E+2	0.00000000E+0	0.00000000E+0	8.69200000E-11	8.81820000E-9	1.80000000E+3	8.94483941E-5
4.05228000E+5	1.20000508E+2	0.00000000E+0	0.00000000E+0	8.57500000E-11	8.86360000E-9	1.79400000E+3	8.93919425E-5
4.09133000E+5	1.21000226E+2	0.00000000E+0	0.00000000E+0	8.45600000E-11	8.88820000E-9	1.72700000E+3	8.88854401E-5
4.13035000E+5	1.21999728E+2	0.00000000E+0	0.00000000E+0	8.47300000E-11	8.89900000E-9	1.71100000E+3	8.87697892E-5
4.16898000E+5	1.23000972E+2	0.00000000E+0	0.00000000E+0	8.47600000E-11	8.89140000E-9	1.70400000E+3	8.90247302E-5
4.20783000E+5	1.23999089E+2	0.00000000E+0	0.00000000E+0	8.47900000E-11	8.86400000E-9	1.68100000E+3	8.93704133E-5
4.24674000E+5	1.25000605E+2	0.00000000E+0	0.00000000E+0	8.51100000E-11	8.82020000E-9	1.74600000E+3	8.89968114E-5
4.28595000E+5	1.25999656E+2	0.00000000E+0	0.00000000E+0	8.56100000E-11	8.76040000E-9	1.80600000E+3	8.90943365E-5
4.32470000E+5	1.26999867E+2	0.00000000E+0	0.00000000E+0	8.58100000E-11	8.67970000E-9	1.83700000E+3	8.86712925E-5
4.36251000E+5	1.27998325E+2	0.00000000E+0	0.00000000E+0	8.54700000E-11	8.57680000E-9	1.76200000E+3	8.90981095E-5
4.39992000E+5	1.29001129E+2	0.00000000E+0	0.00000000E+0	8.48400000E-11	8.45480000E-9	1.77700000E+3	8.90366094E-5
4.43747000E+5	1.29999452E+2	0.00000000E+0	0.00000000E+0	8.34300000E-11	8.31600000E-9	1.74200000E+3	8.91241329E-5
4.47667000E+5	1.31001173E+2	0.00000000E+0	0.00000000E+0	8.19400000E-11	8.15720000E-9	1.63900000E+3	8.88241248E-5
4.51411000E+5	1.31999908E+2	0.00000000E+0	0.00000000E+0	7.99400000E-11	7.97670000E-9	1.64700000E+3	8.94299524E-5
4.55911000E+5	1.32999695E+2	0.00000000E+0	0.00000000E+0	7.76200000E-11	7.77470000E-9	1.54000000E+3	8.90685128E-5
4.59683000E+5	1.33999881E+2	0.00000000E+0	0.00000000E+0	7.46800000E-11	7.55180000E-9	1.47900000E+3	8.91486036E-5
4.63437000E+5	1.35001216E+2	0.00000000E+0	0.00000000E+0	7.18800000E-11	7.31330000E-9	1.48300000E+3	8.90847402E-5
4.67234000E+5	1.36000496E+2	0.00000000E+0	0.00000000E+0	6.84800000E-11	7.06420000E-9	1.46800000E+3	8.89248269E-5
4.70988000E+5	1.36998035E+2	0.00000000E+0	0.00000000E+0	6.55000000E-11	6.80860000E-9	1.36300000E+3	8.89575736E-5
4.74766000E+5	1.38000559E+2	0.00000000E+0	0.00000000E+0	6.23600000E-11	6.54350000E-9	1.27400000E+3	8.88870405E-5
4.78568000E+5	1.38999614E+2	0.00000000E+0	0.00000000E+0	5.94700000E-11	6.26890000E-9	1.18600000E+3	8.88688760E-5
4.82338000E+5	1.40000421E+2	0.00000000E+0	0.00000000E+0	5.58400000E-11	5.97780000E-9	1.24200000E+3	8.92670112E-5
4.86115000E+5	1.40998969E+2	0.00000000E+0	0.00000000E+0	5.25300000E-11	5.66830000E-9	1.16200000E+3	8.85670320E-5
4.89846000E+5	1.42001475E+2	0.00000000E+0	0.00000000E+0	4.86700000E-11	5.33820000E-9	1.07400000E+3	8.91055422E-5
4.93578000E+5	1.42999843E+2	0.00000000E+0	0.00000000E+0	4.52800000E-11	4.99500000E-9	9.51000000E+2	8.88826297E-5
4.97326000E+5	1.43999666E+2	0.00000000E+0	0.00000000E+0	4.15900000E-11	4.64140000E-9	9.06000000E+2	8.91891288E-5
5.01069000E+5	1.45001139E+2	0.00000000E+0	0.00000000E+0	3.83300000E-11	4.28330000E-9	7.93000000E+2	8.89937716E-5
5.04803000E+5	1.46000675E+2	0.00000000E+0	0.00000000E+0	3.47800000E-11	3.93210000E-9	7.32000000E+2	8.90999930E-5
5.08529000E+5	1.47000034E+2	0.00000000E+0	0.00000000E+0	3.13900000E-11	3.59260000E-9	7.40000000E+2	8.89040964E-5
5.12250000E+5	1.47999355E+2	0.00000000E+0	0.00000000E+0	2.83200000E-11	3.27330000E-9	7.46000000E+2	8.89061199E-5
5.15976000E+5	1.49000981E+2	0.00000000E+0	0.00000000E+0	2.58100000E-11	2.97420000E-9	6.52000000E+2	8.88293998E-5
5.19732000E+5	1.49998963E+2	0.00000000E+0	0.00000000E+0	2.35900000E-11	2.69980000E-9	5.75000000E+2	8.94133555E-5
5.24170000E+5	1.50970781E+2	0.00000000E+0	0.00000000E+0	2.05200000E-11	2.41800000E-9	5.80000000E+2	8.89400082E-5
5.28572000E+5	1.52022775E+2	0.00000000E+0	0.00000000E+0	1.89900000E-11	2.25270000E-9	5.13000000E+2	8.91033905E-5
5.33064000E+5	1.53002520E+2	0.00000000E+0	0.00000000E+0	1.74500000E-11	2.09150000E-9	5.25000000E+2	8.90656250E-5
5.37502000E+5	1.54004039E+2	0.00000000E+0	0.00000000E+0	1.60100000E-11	1.93420000E-9	5.15000000E+2	8.87937234E-5
5.41940000E+5	1.55001351E+2	0.00000000E+0	0.00000000E+0	1.48300000E-11	1.77760000E-9	4.82000000E+2	8.87315170E-5
5.46358000E+5	1.56000661E+2	0.00000000E+0	0.00000000E+0	1.34700000E-11	1.63910000E-9	4.28000000E+2	8.87320207E-5
5.50820000E+5	1.56997023E+2	0.00000000E+0	0.00000000E+0	1.25500000E-11	1.52520000E-9	4.07000000E+2	8.89388161E-5
5.55248000E+5	1.57996665E+2	0.00000000E+0	0.00000000E+0	1.19400000E-11	1.42370000E-9	4.01000000E+2	8.87540506E-5
5.59661000E+5	1.58999985E+2	0.00000000E+0	0.00000000E+0	1.08800000E-11	1.33150000E-9	3.95000000E+2	8.90591668E-5
5.64125000E+5	1.59994530E+2	0.00000000E+0	0.00000000E+0	1.06500000E-11	1.25180000E-9	3.99000000E+2	8.90810596E-5
5.68562000E+5	1.60993091E+2	0.00000000E+0	0.00000000E+0	9.99000000E-12	1.19140000E-9	3.87000000E+2	8.92367976E-5
5.73009000E+5	1.62003776E+2	0.00000000E+0	0.00000000E+0	9.14000000E-12	1.13100000E-9	3.62000000E+2	8.92137544E-5
5.77434000E+5	1.63006857E+2	0.00000000E+0	0.00000000E+0	8.72000000E-12	1.06050000E-9	3.94000000E+2	8.93124985E-5
5.81856000E+5	1.64001010E+2	0.00000000E+0	0.00000000E+0	7.83000000E-12	9.83300000E-10	3.60000000E+2	8.93866526E-5
5.86313000E+5	1.65004401E+2	0.00000000E+0	0.00000000E+0	6.74000000E-12	9.01000000E-10	3.76000000E+2	8.92780649E-5
5.90801000E+5	1.66002202E+2	0.00000000E+0	0.00000000E+0	6.48000000E-12	8.21700000E-10	3.41000000E+2	8.92422276E-5
5.95237000E+5	1.66999181E+2	0.00000000E+0	0.00000000E+0	6.08000000E-12	7.52400000E-10	3.06000000E+2	8.89737265E-5
5.99663000E+5	1.67997463E+2	0.00000000E+0	0.00000000E+0	5.24000000E-12	6.95500000E-10	3.36000000E+2	8.90178459E-5
6.04083000E+5	1.68999508E+2	0.00000000E+0	0.00000000E+0	5.12000000E-12	6.46300000E-10	3.32000000E+2	8.91955303E-5
6.08521000E+5	1.69995016E+2	0.00000000E+0	0.00000000E+0	4.65000000E-12	6.05500000E-10	3.25000000E+2	8.89055835E-5
6.12916000E+5	1.70995583E+2	0.00000000E+0	0.00000000E+0	4.44000000E-12	5.72900000E-10	3.31000000E+2	8.91699748E-5
6.17388000E+5	1.71993675E+2	0.00000000E+0	0.00000000E+0	4.54000000E-12	5.50700000E-10	3.69000000E+2	8.92069506E-5
6.21846000E+5	1.73008898E+2	0.00000000E+0	0.00000000E+0	4.05000000E-12	5.25600000E-10	3.89000000E+2	8.95689266E-5
6.26260000E+5	1.74003977E+2	0.00000000E+0	0.00000000E+0	3.71000000E-12	4.97600000E-10	3.86000000E+2	8.89321880E-5
6.30718000E+5	1.75000582E+2	0.00000000E+0	0.00000000E+0	3.35000000E-12	4.68500000E-10	3.79000000E+2	8.90854822E-5
6.35114000E+5	1.76003895E+2	0.00000000E+0	0.00000000E+0	3.35000000E-12	4.39100000E-10	3.79000000E+2	8.91976910E-5
6.39545000E+5	1.77000119E+2	0.00000000E+0	0.00000000E+0	3.16000000E-12	4.13700000E-10	3.95000000E+2	8.91414480E-5
6.44020000E+5	1.77996136E+2	0.00000000E+0	0.00000000E+0	3.04000000E-12	3.93300000E-10	3.64000000E+2	8.90361177E-5
6.48457000E+5	1.79000259E+2	0.00000000E+0	0.00000000E+0	3.07000000E-12	3.77600000E-10	3.31000000E+2	8.92961817E-5
6.52907000E+5	1.79997009E+2	0.00000000E+0	0.00000000E+0	2.63000000E-12	3.65100000E-10	3.24000000E+2	8.91089844E-5
6.57316000E+5	1.80995693E+2	0.00000000E+0	0.00000000E+0	2.71000000E-12	3.55800000E-10	3.08000000E+2	8.89052825E-5
