G:\BEAR_storage\User_Experiments\20220317_arneodo\file(1)_Region 7__0054.txt
Ring Energy (GeV): 2
Lifetime (hours): 15.3095
Scan beginning: 3/19/2022	2:58:15 PM
Ring current (mA): 308.49
Source position: x (mm): -0.004 x' (mrad): 0.001 y (mm): 0.005 y' (mrad): 0.006
Scan end: 3/19/2022	4:13:13 PM
Ring current (mA): 308.35
Source position: x (mm): -0.005 x' (mrad): 0.003 y (mm): 0.003 y' (mrad): 0.006

SCAN TYPE: PHOTON ENERGY VS VAR_1 VS VAR_2

FILE INFO: FILE INFO:

SCAN PARAMETERS
waiting time (ms): 0
Number of scans: 1
Current scan number: 1
DARK OFF 
PREDARK OFF 

SCAN PARAMETERS
Regions configuration: 
number of regions: 8
Mirror grating scan: on
Timed acquisition: off
Region 1:
Initial energy (eV): 48.500000
Final energy (eV): 50.500000
Delta energy (eV): 0.100000
Deviation angle choice: Degrees: 
Deviation angle (°): NaN
Si filter
G1200 channel
range keithley B 20 nA
range keithley C 2 uA
range keithley A 20 nA
Var_1: PsiC 0.000000
Var_2: PhiM0.000000
Bias CEM (V): 0.000000
Bias Keithley B (V): 0.000000
Name region: 
Region 2:
Initial energy (eV): 71.000000
Final energy (eV): 74.000000
Delta energy (eV): 0.100000
Deviation angle choice: Degrees: 
Deviation angle (°): NaN
Al filter
G1200 channel
range keithley B 20 nA
range keithley C 2 uA
range keithley A 20 nA
Var_1: PsiC 0.000000
Var_2: PhiM0.000000
Bias CEM (V): 0.000000
Bias Keithley B (V): 0.000000
Name region: 
Region 3:
Initial energy (eV): 97.000000
Final energy (eV): 102.000000
Delta energy (eV): 0.100000
Deviation angle choice: Degrees: 
Deviation angle (°): NaN
Si filter
G1200 channel
range keithley B 20 nA
range keithley C 2 uA
range keithley A 20 nA
Var_1: PsiC 0.000000
Var_2: PhiM0.000000
Bias CEM (V): 0.000000
Bias Keithley B (V): 0.000000
Name region: 
Region 4:
Initial energy (eV): 272.000000
Final energy (eV): 295.000000
Delta energy (eV): 0.100000
Deviation angle choice: Degrees: 
Deviation angle (°): NaN
filter Ag 0.6 um
G1200 channel
range keithley B 200 pA
range keithley C 2 uA
range keithley A 200 pA
Var_1: PsiC 0.000000
Var_2: PhiM0.000000
Bias CEM (V): 0.000000
Bias Keithley B (V): 0.000000
Name region: 
Region 5:
Initial energy (eV): 380.000000
Final energy (eV): 405.000000
Delta energy (eV): 0.100000
Deviation angle choice: Degrees: 
Deviation angle (°): NaN
Full Beam
G1200 channel
range keithley B 200 pA
range keithley C 2 uA
range keithley A 20 nA
Var_1: PsiC 0.000000
Var_2: PhiM0.000000
Bias CEM (V): 0.000000
Bias Keithley B (V): 0.000000
Name region: 
Region 6:
Initial energy (eV): 500.000000
Final energy (eV): 530.000000
Delta energy (eV): 0.100000
Deviation angle choice: Degrees: 
Deviation angle (°): NaN
Full Beam
G1200 channel
range keithley B 200 pA
range keithley C 2 uA
range keithley A 20 nA
Var_1: PsiC 0.000000
Var_2: PhiM0.000000
Bias CEM (V): 0.000000
Bias Keithley B (V): 0.000000
Name region: 
Region 7:
Initial energy (eV): 700.000000
Final energy (eV): 715.000000
Delta energy (eV): 0.100000
Deviation angle choice: Degrees: 
Deviation angle (°): NaN
Full Beam
G1200 channel
range keithley B 200 pA
range keithley C 2 uA
range keithley A 20 nA
Var_1: PsiC 0.000000
Var_2: PhiM0.000000
Bias CEM (V): 0.000000
Bias Keithley B (V): 0.000000
Name region: 
Region 8:
Initial energy (eV): 1450.000000
Final energy (eV): 1600.000000
Delta energy (eV): 0.100000
Deviation angle choice: Degrees: 
Deviation angle (°): NaN
filter Ag 0.6 um
G1200 channel
range keithley B 200 pA
range keithley C 2 uA
range keithley A 200 pA
Var_1: PsiC 0.000000
Var_2: PhiM0.000000
Bias CEM (V): 0.000000
Bias Keithley B (V): 0.000000
Name region: 

BEAR MONOCHROMATOR CONFIGURATION: 
Current Grating Position:     -236072.10
Current Mirror Position: 2557.0
Current Grating: G1200
P2 phiz position:  0.0000
Mono axis position: 25.0000
Current Photon Energy (eV): 40.000
Current Deviation Angle: 155.000
Vertical Exit Slits (um): 100.000
Exit slit y axis position: 1.3625
Horizontal Exit Slits (um):  889.156
Exit slit z axis position: 1.9229
Mitutoyo position (mm): 

Dose on sample (mJ/cm^2): NaN

ENERGY CALIBRATION:
offset grating G1200: yes
Delta 0 order G1200:  -800.0
offset grating G1800: not
Delta 0 order G1800:  0.0
offset grating GNIM: not
Delta 0 order GNIM:  0.0
ZERO ORDER POSITIONS:
Grating G1200: Mirror position:  4938.0
Grating position: -105355.0
Grating G1800: 
Mirror position:  4938.0
Grating position: -106345.0
Grating GNIM: 
Mirror position:  10000.0
Grating position: 227300.0

Initial filter: Al filter

EXPERIMENTAL CHAMBER CONFIGURATION: 
PsiC (deg):   -0.000186
Phi Analyzer (degrees): 89.992308
Theta Manipulator (degrees): -44.000040
Theta Analyzer (degrees): -135.001450
PhiM (degrees): -0.004103
XM (mm): 0.000388
YM (mm): 19.932987
ZM (mm): (Warning: for kinetic energy scans, 
this parameter is given in the scan settings) 
-6.601438
TiltM (°): 0.000138

ELECTRON ANALYZER CONFIGURATION: 
Current Kinetik energy (eV): 35.0
Mode: DE = COST
Pass Energy (eV):  50.000
CEM: ON
Bias Front-Back CEM (V): 3499.561
Bias Back-Collector CEM (V): 100.874
Bias Retard-Front CEM: 100.087COIL VALUES
Ix (amps):2.820
Iy (amps): 6.789
Iz (amps): 37.337

POLARIZATION SELECTOR CONFIGURATION:
Psi1 (rad): -0.001665535
Psi2 (rad): 0.001417093
Z min position (mm): 46.599650
DZ position (mm): 18.599100
Zmin 0 (mm): 66.500000
DZ0 (mm): 53.000000

BEAM SELECTOR CONFIGURATION:
Zmin position (mm): NaN
DZ position (mm): NaN
Y+ position (mm): NaN
Y- position (mm): NaN

CHANNEL ELECTRON MULTIPLIER CONFIGURATION:
CEM configured: OFF
Bias CEM: 0.000000

FLUORESCENCE DETECTOR CONFIGURATION:
Not configured

LUMINESCENCE MONOCHROMATOR CONFIGURATION:
Optical fiber position (mm): 0.000000
Optical fiber Switch inside: OFF
Optical fiber Switch outside: ON
Monochromator wavelength (A): 0.000000
Limit Switches: ON

I0 MONITOR PARAMETERS:
I0 detector position(mm): -1.924999E+2
Lower switch: OFF
Upper switch: OFF
Valve status:open

PRESSURE PARAMETERS:
Monitor chamber pressure (mbar): 8.588e-10
Experimental chamber pressure -ION GAUGE-(mbar): 0.000000E+0

XMCD PARAMETERS:
Xmcd OFF
Xmcd Direction -
Xmcd current (A): 0.000000

Gated scan off

Instrument 1: AMMETER KEITHLEY 6517A B
Measure type: Current
range type: set range value
range value (ampere):  200 pA
Integration time:  set NPLC value
NPLC value: 10.000
Digital filter count: 2
SAMPLE BIAS (V): -30.000
Vsource: ON
Output Voltage value: 30.000
Vsource range: 1000 V

Range Keithley B changed to 20 nA

Range Keithley B changed to 200 pA

Range Keithley B changed to 20 nA

Range Keithley B changed to 200 pA

Range Keithley B changed to 20 nA

Range Keithley B changed to 200 pA

Range Keithley B changed to 20 nA

Range Keithley B changed to 200 nA

Range Keithley B changed to 200 pA

Range Keithley B changed to 20 nA

Range Keithley B changed to 200 pA

Range Keithley B changed to 20 nA

Range Keithley B changed to 200 pA

Range Keithley B changed to 20 nA

Range Keithley B changed to 200 pA

Range Keithley B changed to 20 nA

Range Keithley B changed to 200 pA

Range Keithley B changed to 20 nA

Range Keithley B changed to 200 pA

Range Keithley B changed to 20 nA

Range Keithley B changed to 200 pA

Range Keithley B changed to 20 nA

Range Keithley B changed to 200 pA

Range Keithley B changed to 20 nA

Range Keithley B changed to 200 pA

Range Keithley B changed to 20 nA

Range Keithley B changed to 200 pA

Range Keithley B changed to 20 nA

Range Keithley B changed to 200 pA

Range Keithley B changed to 20 nA

Range Keithley B changed to 200 pA

Range Keithley B changed to 20 nA

Range Keithley B changed to 200 pA

Range Keithley B changed to 20 nA

Range Keithley B changed to 200 pA

Range Keithley B changed to 20 nA

Range Keithley B changed to 200 pA

Range Keithley B changed to 20 nA

Range Keithley B changed to 200 pA

Range Keithley B changed to 20 nA

Keithley B Bias (V) changed to: 0.000000

Range Keithley B changed to 200 pA

Instrument 2: AMMETER KEITHLEY 6517A A
Measure type: Current
range type: set range value
range value (ampere):  200 nA
Integration time:  set NPLC value
NPLC value: 10.000
Digital filter count: 2
Vsource: OFF
Output Voltage value: -0.000
Vsource range: 100 V
Trigger source: bus

Range Keithley A changed to 20 nA

Range Keithley A changed to 200 nA

Range Keithley A changed to 200 pA

Range Keithley A changed to 20 nA

Range Keithley A changed to 200 pA

Range Keithley A changed to 20 nA

Range Keithley A changed to 200 nA

Range Keithley A changed to 200 pA

Range Keithley A changed to 20 nA

Range Keithley A changed to 200 pA

Range Keithley A changed to 20 nA

Range Keithley A changed to 200 nA

Range Keithley A changed to 200 pA

Range Keithley A changed to 20 nA

Range Keithley A changed to 200 pA

Range Keithley A changed to 20 nA

Range Keithley A changed to 200 pA

Range Keithley A changed to 20 nA

Range Keithley A changed to 200 pA

Range Keithley A changed to 20 nA

Range Keithley A changed to 200 pA

Range Keithley A changed to 20 nA

Range Keithley A changed to 200 nA

Range Keithley A changed to 200 pA

Range Keithley A changed to 20 nA

Range Keithley A changed to 200 pA

Range Keithley A changed to 20 nA

Range Keithley A changed to 200 nA

Range Keithley A changed to 200 pA

Range Keithley A changed to 20 nA

Range Keithley A changed to 200 nA

Range Keithley A changed to 200 pA

Range Keithley A changed to 20 nA

Range Keithley A changed to 200 pA

Range Keithley A changed to 20 nA

Range Keithley A changed to 200 pA

Range Keithley A changed to 20 nA

Range Keithley A changed to 200 nA

Range Keithley A changed to 200 pA

Range Keithley A changed to 20 nA

Range Keithley A changed to 200 pA

Range Keithley A changed to 20 nA

Range Keithley A changed to 200 nA

Range Keithley A changed to 20 nA

Range Keithley A changed to 200 nA

Range Keithley A changed to 200 pA

Range Keithley A changed to 20 nA

Range Keithley A changed to 200 nA

Range Keithley A changed to 2 uA

Range Keithley A changed to 20 nA

Range Keithley A changed to 200 nA

Range Keithley A changed to 2 uA

Range Keithley A changed to 20 nA

Range Keithley A changed to 200 nA

Range Keithley A changed to 200 pA

Range Keithley A changed to 2 uA

Range Keithley A changed to 20 nA

Range Keithley A changed to 200 nA

Range Keithley A changed to 200 pA

Range Keithley A changed to 20 nA

Range Keithley A changed to 2 uA

Range Keithley A changed to 20 nA

Range Keithley A changed to 200 nA

Range Keithley A changed to 20 nA

Range Keithley A changed to 200 nA

Range Keithley A changed to 200 pA

Range Keithley A changed to 2 uA

Range Keithley A changed to 20 nA

Range Keithley A changed to 200 nA

Range Keithley A changed to 20 nA

Range Keithley A changed to 200 nA

Range Keithley A changed to 200 pA

Range Keithley A changed to 20 nA

Range Keithley A changed to 200 nA

Range Keithley A changed to 20 nA

Range Keithley A changed to 200 nA

Range Keithley A changed to 200 pA

Range Keithley A changed to 20 nA

Range Keithley A changed to 200 nA

Range Keithley A changed to 200 pA

Range Keithley A changed to 20 nA

Range Keithley A changed to 200 pA

Range Keithley A changed to 20 nA

Range Keithley A changed to 200 pA

Range Keithley A changed to 20 nA

Range Keithley A changed to 200 pA

Range Keithley A changed to 20 nA

Range Keithley A changed to 200 pA

Instrument 3: AMMETER KEITHLEY 6517A C 
Measure type: Current
range type: set range value
range value (ampere):  2 uA
Integration time:  set NPLC value
NPLC value: 10.000
Digital filter count: 2
Vsource: OFF
Output Voltage value: -0.000
Vsource range: 100 V
Trigger source: bus


Range Keithley C changed to 20 uA


Range Keithley C changed to 2 uA


Range Keithley C changed to 200 uA


Range Keithley C changed to 2 uA


Range Keithley C changed to 20 uA


Range Keithley C changed to 200 uA


Range Keithley C changed to 2 uA


Range Keithley C changed to 20 uA


Range Keithley C changed to 2 uA


Range Keithley C changed to 20 uA


Range Keithley C changed to 200 uA


Range Keithley C changed to 2 uA


Range Keithley C changed to 20 uA


Range Keithley C changed to 2 uA


Range Keithley C changed to 20 uA


Range Keithley C changed to 2 uA


Range Keithley C changed to 20 uA


Range Keithley C changed to 2 uA


________________________________________________________________________________

RelativeTime (msec)	Photon Energy	Var_1	Var_2	INSTR_1_Sample grounded_(ampere ) 	INSTR_2_Monitor IM_(ampere)  	INSTR_3_Ortec 996 counts_(ampere)	I_BPM_sum (Amps)	
________________________________________________________________________________

3.85950800E+6	6.99978247E+2	0.00000000E+0	0.00000000E+0	-1.97200000E-13	1.64363500E-8	9.30000000E+1	8.86883603E-5
3.86467500E+6	7.00099965E+2	0.00000000E+0	0.00000000E+0	-2.74600000E-13	1.64352800E-8	9.70000000E+1	8.86203186E-5
3.86872600E+6	7.00195426E+2	0.00000000E+0	0.00000000E+0	-2.20100000E-13	1.64326800E-8	1.05000000E+2	8.88861315E-5
3.87277300E+6	7.00292117E+2	0.00000000E+0	0.00000000E+0	-3.01600000E-13	1.64303600E-8	1.05000000E+2	8.87152092E-5
3.87682900E+6	7.00408441E+2	0.00000000E+0	0.00000000E+0	-3.09800000E-13	1.64391200E-8	1.05000000E+2	8.84808556E-5
3.88113900E+6	7.00515513E+2	0.00000000E+0	0.00000000E+0	-2.81100000E-13	1.64751800E-8	9.10000000E+1	8.94452529E-5
3.88522500E+6	7.00626801E+2	0.00000000E+0	0.00000000E+0	-2.79700000E-13	1.64928100E-8	1.05000000E+2	8.90685396E-5
3.88931200E+6	7.00701614E+2	0.00000000E+0	0.00000000E+0	-2.55600000E-13	1.64909500E-8	9.50000000E+1	8.92580645E-5
3.89335200E+6	7.00785214E+2	0.00000000E+0	0.00000000E+0	-1.96300000E-13	1.64874900E-8	8.30000000E+1	8.93406110E-5
3.89740500E+6	7.00892218E+2	0.00000000E+0	0.00000000E+0	-3.33400000E-13	1.64850600E-8	1.00000000E+2	8.92344849E-5
3.90147500E+6	7.01013119E+2	0.00000000E+0	0.00000000E+0	-2.46700000E-13	1.64821700E-8	8.30000000E+1	8.94069510E-5
3.90574800E+6	7.01121312E+2	0.00000000E+0	0.00000000E+0	-2.24900000E-13	1.64785100E-8	9.40000000E+1	8.90975224E-5
3.90984800E+6	7.01225689E+2	0.00000000E+0	0.00000000E+0	-2.47400000E-13	1.64763800E-8	8.00000000E+1	8.92852681E-5
3.91412000E+6	7.01319971E+2	0.00000000E+0	0.00000000E+0	-2.68400000E-13	1.64722700E-8	1.03000000E+2	8.94236731E-5
3.91821400E+6	7.01396626E+2	0.00000000E+0	0.00000000E+0	-1.25500000E-13	1.64697400E-8	8.30000000E+1	8.92245667E-5
3.92298800E+6	7.01507892E+2	0.00000000E+0	0.00000000E+0	-2.84700000E-13	1.64670200E-8	9.90000000E+1	8.92879354E-5
3.92705900E+6	7.01602979E+2	0.00000000E+0	0.00000000E+0	-1.70000000E-13	1.64640200E-8	8.00000000E+1	8.89805781E-5
3.93111000E+6	7.01711978E+2	0.00000000E+0	0.00000000E+0	-2.15100000E-13	1.64606300E-8	7.50000000E+1	8.91667115E-5
3.93517400E+6	7.01791407E+2	0.00000000E+0	0.00000000E+0	-2.35100000E-13	1.64564300E-8	9.40000000E+1	8.90213566E-5
3.93922300E+6	7.01879566E+2	0.00000000E+0	0.00000000E+0	-2.55700000E-13	1.64510900E-8	8.60000000E+1	8.93321799E-5
3.94330900E+6	7.02002530E+2	0.00000000E+0	0.00000000E+0	-3.18500000E-13	1.64466700E-8	9.50000000E+1	8.89668571E-5
3.94736900E+6	7.02105693E+2	0.00000000E+0	0.00000000E+0	-2.60200000E-13	1.64429900E-8	9.70000000E+1	8.87297378E-5
3.95144800E+6	7.02200983E+2	0.00000000E+0	0.00000000E+0	-3.38200000E-13	1.64392900E-8	8.20000000E+1	8.89951246E-5
3.95548500E+6	7.02299830E+2	0.00000000E+0	0.00000000E+0	-2.00500000E-13	1.64346900E-8	1.07000000E+2	8.90919017E-5
3.95952100E+6	7.02402235E+2	0.00000000E+0	0.00000000E+0	-2.93200000E-13	1.64297900E-8	1.02000000E+2	8.91735988E-5
3.96361300E+6	7.02502854E+2	0.00000000E+0	0.00000000E+0	-2.32700000E-13	1.64244200E-8	9.10000000E+1	8.92870652E-5
3.96765000E+6	7.02594848E+2	0.00000000E+0	0.00000000E+0	-2.85900000E-13	1.64184000E-8	9.10000000E+1	8.90974777E-5
3.97179000E+6	7.02690320E+2	0.00000000E+0	0.00000000E+0	-2.78300000E-13	1.64127600E-8	1.06000000E+2	8.91438054E-5
3.97584100E+6	7.02794465E+2	0.00000000E+0	0.00000000E+0	-2.17300000E-13	1.64075700E-8	9.00000000E+1	8.89972554E-5
3.97990800E+6	7.02911573E+2	0.00000000E+0	0.00000000E+0	-2.46300000E-13	1.64023600E-8	9.60000000E+1	8.90994208E-5
3.98398200E+6	7.03005460E+2	0.00000000E+0	0.00000000E+0	-2.06400000E-13	1.63973300E-8	1.00000000E+2	8.86756764E-5
3.98803800E+6	7.03101845E+2	0.00000000E+0	0.00000000E+0	-2.23800000E-13	1.63922800E-8	9.70000000E+1	8.89969753E-5
3.99211100E+6	7.03198251E+2	0.00000000E+0	0.00000000E+0	-1.93600000E-13	1.63870700E-8	9.40000000E+1	8.91237723E-5
3.99616500E+6	7.03306054E+2	0.00000000E+0	0.00000000E+0	-2.37200000E-13	1.63818500E-8	9.40000000E+1	8.93527465E-5
4.00028100E+6	7.03403409E+2	0.00000000E+0	0.00000000E+0	-2.51900000E-13	1.63761600E-8	9.40000000E+1	8.94088673E-5
4.00434000E+6	7.03492948E+2	0.00000000E+0	0.00000000E+0	-2.29400000E-13	1.63693000E-8	9.00000000E+1	8.89585422E-5
4.00842000E+6	7.03594715E+2	0.00000000E+0	0.00000000E+0	-2.55700000E-13	1.63633400E-8	8.00000000E+1	8.91565489E-5
4.01248700E+6	7.03702532E+2	0.00000000E+0	0.00000000E+0	-2.44900000E-13	1.63584100E-8	8.30000000E+1	8.88915704E-5
4.01656400E+6	7.03808640E+2	0.00000000E+0	0.00000000E+0	-2.81400000E-13	1.63528300E-8	8.40000000E+1	8.93781113E-5
4.02062000E+6	7.03905195E+2	0.00000000E+0	0.00000000E+0	-2.44900000E-13	1.63479300E-8	9.90000000E+1	8.89789121E-5
4.02466900E+6	7.04002599E+2	0.00000000E+0	0.00000000E+0	-1.66700000E-13	1.63431400E-8	8.60000000E+1	8.88303326E-5
4.02869500E+6	7.04105066E+2	0.00000000E+0	0.00000000E+0	-2.42300000E-13	1.63376200E-8	7.80000000E+1	8.91623395E-5
4.03297500E+6	7.04210520E+2	0.00000000E+0	0.00000000E+0	-2.07800000E-13	1.63285300E-8	9.70000000E+1	8.88470577E-5
4.03705500E+6	7.04308816E+2	0.00000000E+0	0.00000000E+0	-2.25200000E-13	1.63235400E-8	9.30000000E+1	8.91411023E-5
4.04107000E+6	7.04415409E+2	0.00000000E+0	0.00000000E+0	-2.52400000E-13	1.63200000E-8	9.30000000E+1	8.88877140E-5
4.04516000E+6	7.04504988E+2	0.00000000E+0	0.00000000E+0	-3.05200000E-13	1.63156300E-8	1.01000000E+2	8.91596751E-5
4.04921700E+6	7.04606739E+2	0.00000000E+0	0.00000000E+0	-2.06800000E-13	1.63102900E-8	8.50000000E+1	8.89372306E-5
4.05332700E+6	7.04698092E+2	0.00000000E+0	0.00000000E+0	-2.48200000E-13	1.63043800E-8	9.00000000E+1	8.90728669E-5
4.05738100E+6	7.04786899E+2	0.00000000E+0	0.00000000E+0	-3.28300000E-13	1.62982500E-8	8.10000000E+1	8.88446675E-5
4.06141500E+6	7.04904267E+2	0.00000000E+0	0.00000000E+0	-1.76300000E-13	1.62937400E-8	8.70000000E+1	8.89576809E-5
4.06546100E+6	7.05006186E+2	0.00000000E+0	0.00000000E+0	-3.33700000E-13	1.62893100E-8	9.70000000E+1	8.91169386E-5
4.06949100E+6	7.05104572E+2	0.00000000E+0	0.00000000E+0	-2.36000000E-13	1.62843800E-8	9.30000000E+1	8.88253288E-5
4.07375100E+6	7.05218118E+2	0.00000000E+0	0.00000000E+0	-2.32400000E-13	1.62775600E-8	9.30000000E+1	8.90432613E-5
4.07780900E+6	7.05307692E+2	0.00000000E+0	0.00000000E+0	-1.94800000E-13	1.62715800E-8	1.15000000E+2	8.94228327E-5
4.08185700E+6	7.05396375E+2	0.00000000E+0	0.00000000E+0	-2.56400000E-13	1.62676500E-8	8.90000000E+1	8.87021200E-5
4.08593900E+6	7.05514887E+2	0.00000000E+0	0.00000000E+0	-2.13500000E-13	1.62630400E-8	8.80000000E+1	8.89949696E-5
4.09024000E+6	7.05622403E+2	0.00000000E+0	0.00000000E+0	-2.57100000E-13	1.62566400E-8	8.60000000E+1	8.89644908E-5
4.09432900E+6	7.05719847E+2	0.00000000E+0	0.00000000E+0	-2.33300000E-13	1.62530000E-8	9.50000000E+1	8.87404697E-5
4.09838000E+6	7.05797417E+2	0.00000000E+0	0.00000000E+0	-2.53500000E-13	1.62651100E-8	8.40000000E+1	8.91478764E-5
4.10269600E+6	7.05926720E+2	0.00000000E+0	0.00000000E+0	-2.89400000E-13	1.62972400E-8	9.50000000E+1	8.94253480E-5
