G:\BEAR_storage\User_Experiments\20220108_arneodo\file(1)_Region 3__0019.txt
Ring Energy (GeV): 2
Lifetime (hours): 17.3036
Scan beginning: 8/2/2022	9:25:18 AM
Ring current (mA): 308.79
Source position: x (mm): -0.003 x' (mrad): 0.003 y (mm): -0.006 y' (mrad): 0
Scan end: 8/2/2022	9:38:34 AM
Ring current (mA): 308.68
Source position: x (mm): -0.004 x' (mrad): 0.004 y (mm): -0.007 y' (mrad): 0

SCAN TYPE: PHOTON ENERGY VS VAR_1 VS VAR_2

FILE INFO: FILE INFO:

SCAN PARAMETERS
waiting time (ms): 1000
Number of scans: 1
Current scan number: 1
DARK OFF 
PREDARK OFF 

SCAN PARAMETERS
Regions configuration: 
number of regions: 6
Mirror grating scan: on
Timed acquisition: off
Region 1:
Initial energy (eV): 40.000000
Final energy (eV): 72.000000
Delta energy (eV): 1.000000
Deviation angle choice: Higher order rejection
Deviation angle (�): NaN
Al filter
G1200 channel
range keithley B 20 nA
range keithley C 2 uA
range keithley A 20 nA
Var_1: XM3.000000
Var_2: YM15.000000
Bias CEM (V): 0.000000
Bias Keithley B (V): -30.000000
Name region: 
Region 2:
Initial energy (eV): 70.000000
Final energy (eV): 102.000000
Delta energy (eV): 1.000000
Deviation angle choice: Higher order rejection
Deviation angle (�): NaN
Si filter
G1200 channel
range keithley B 200 nA
range keithley C 20 uA
range keithley A 20 nA
Var_1: XM3.000000
Var_2: YM15.000000
Bias CEM (V): 0.000000
Bias Keithley B (V): -30.000000
Name region: 
Region 3:
Initial energy (eV): 98.000000
Final energy (eV): 260.000000
Delta energy (eV): 1.000000
Deviation angle choice: Higher order rejection
Deviation angle (�): NaN
Full Beam
G1200 channel
range keithley B 200 nA
range keithley C 20 uA
range keithley A 200 nA
Var_1: XM3.000000
Var_2: YM15.000000
Bias CEM (V): 0.000000
Bias Keithley B (V): -30.000000
Name region: 
Region 4:
Initial energy (eV): 255.000000
Final energy (eV): 320.000000
Delta energy (eV): 1.000000
Deviation angle choice: Higher order rejection
Deviation angle (�): NaN
filter Ag 0.6 um
G1200 channel
range keithley B 200 pA
range keithley C 2 uA
range keithley A 200 nA
Var_1: XM3.000000
Var_2: YM15.000000
Bias CEM (V): 0.000000
Bias Keithley B (V): -30.000000
Name region: 
Region 5:
Initial energy (eV): 315.000000
Final energy (eV): 1200.000000
Delta energy (eV): 5.000000
Deviation angle choice: Higher order rejection
Deviation angle (�): NaN
Full Beam
G1200 channel
range keithley B 20 nA
range keithley C 20 uA
range keithley A 200 nA
Var_1: XM3.000000
Var_2: YM15.000000
Bias CEM (V): 0.000000
Bias Keithley B (V): -30.000000
Name region: 
Region 6:
Initial energy (eV): 1190.000000
Final energy (eV): 1500.000000
Delta energy (eV): 5.000000
Deviation angle choice: Higher order rejection
Deviation angle (�): NaN
filter Ag 0.6 um
G1200 channel
range keithley B 200 pA
range keithley C 2 uA
range keithley A 200 nA
Var_1: XM3.000000
Var_2: YM15.000000
Bias CEM (V): 0.000000
Bias Keithley B (V): -30.000000
Name region: 

BEAR MONOCHROMATOR CONFIGURATION: 
Current Grating Position:     160137.60
Current Mirror Position: 298443.4
Current Grating: G1200
P2 phiz position:  0.0000
Mono axis position: 25.0000
Current Photon Energy (eV): 1500.012
Current Deviation Angle: 175.800
Vertical Exit Slits (um): 450.000
Exit slit y axis position: 2.2375
Horizontal Exit Slits (um):  890.000
Exit slit z axis position: 1.9250
Mitutoyo position (mm): 

Dose on sample (mJ/cm^2): NaN

ENERGY CALIBRATION:
offset grating G1200: yes
Delta 0 order G1200:  -500.0
offset grating G1800: not
Delta 0 order G1800:  0.0
offset grating GNIM: not
Delta 0 order GNIM:  0.0
ZERO ORDER POSITIONS:
Grating G1200: Mirror position:  4938.0
Grating position: -105355.0
Grating G1800: 
Mirror position:  4938.0
Grating position: -106345.0
Grating GNIM: 
Mirror position:  10000.0
Grating position: 227300.0

Initial filter: Ag filter 0.6 um

EXPERIMENTAL CHAMBER CONFIGURATION: 
PsiC (deg):   0.036413
Phi Analyzer (degrees): -0.009471
Theta Manipulator (degrees): -45.000040
Theta Analyzer (degrees): -0.000455
PhiM (degrees): -0.006155
XM (mm): 2.999938
YM (mm): 14.999863
ZM (mm): (Warning: for kinetic energy scans, 
this parameter is given in the scan settings) 
-8.300075
TiltM (�): -0.000275

COIL VALUES
Ix (amps):2.950
Iy (amps): 6.790
Iz (amps): 14.440

POLARIZATION SELECTOR CONFIGURATION:
Psi1 (rad): -0.001665535
Psi2 (rad): 0.001417093
Z min position (mm): 46.599650
DZ position (mm): 18.599100
Zmin 0 (mm): 66.500000
DZ0 (mm): 53.000000

BEAM SELECTOR CONFIGURATION:
Zmin position (mm): 158.000000
DZ position (mm): 264.000000
Y+ position (mm): 291.700000
Y- position (mm): NaN

CHANNEL ELECTRON MULTIPLIER CONFIGURATION:
CEM configured: OFF
Bias CEM: 0.000000

FLUORESCENCE DETECTOR CONFIGURATION:
Not configured

LUMINESCENCE MONOCHROMATOR CONFIGURATION:
Optical fiber position (mm): 0.000000
Optical fiber Switch inside: OFF
Optical fiber Switch outside: ON
Monochromator wavelength (A): 229000.000000
Limit Switches: OFF

I0 MONITOR PARAMETERS:
I0 detector position(mm): 1.924999E+2
Lower switch: OFF
Upper switch: OFF
Valve status:open

PRESSURE PARAMETERS:
Monitor chamber pressure (mbar): 1.273e-09
Experimental chamber pressure -ION GAUGE-(mbar): 0.000000E+0

XMCD PARAMETERS:
Xmcd OFF
Xmcd Direction -
Xmcd current (A): 0.000000

Gated scan on
Shutter open time (ms): 689890755
Shutter aperture time (ms): -43147589

Instrument 1: AMMETER KEITHLEY 6517A B
Measure type: Current
range type: set range value
range value (ampere):  200 pA
Integration time:  set NPLC value
NPLC value: 10.000
Digital filter count: 2
SAMPLE BIAS (V): -30.000
Vsource: ON
Output Voltage value: 30.000
Vsource range: 1000 V

Range Keithley B changed to 20 nA

Range Keithley B changed to 200 pA

Range Keithley B changed to 20 nA

Range Keithley B changed to 200 pA

Range Keithley B changed to 20 nA

Range Keithley B changed to 200 pA

Range Keithley B changed to 20 nA

Range Keithley B changed to 200 pA

Range Keithley B changed to 20 nA

Range Keithley B changed to 200 nA

Range Keithley B changed to 20 nA

Range Keithley B changed to 200 nA

Range Keithley B changed to 200 pA

Range Keithley B changed to 20 nA

Range Keithley B changed to 200 pA

Range Keithley B changed to 20 nA

Range Keithley B changed to 200 pA

Range Keithley B changed to 20 nA

Range Keithley B changed to 200 pA

Range Keithley B changed to 20 nA

Range Keithley B changed to 200 pA

Range Keithley B changed to 20 nA

Range Keithley B changed to 200 pA

Range Keithley B changed to 20 nA

Range Keithley B changed to 200 nA

Range Keithley B changed to 200 pA

Range Keithley B changed to 20 nA

Range Keithley B changed to 200 pA

Range Keithley B changed to 20 nA

Range Keithley B changed to 200 nA

Range Keithley B changed to 200 pA

Instrument 2: AMMETER KEITHLEY 6517A A
Measure type: Current
range type: set range value
range value (ampere):  20 nA
Integration time:  set NPLC value
NPLC value: 10.000
Digital filter count: 2
Vsource: OFF
Output Voltage value: -0.000
Vsource range: 100 V
Trigger source: bus

Range Keithley A changed to 200 nA

Range Keithley A changed to 200 pA

Range Keithley A changed to 20 nA

Range Keithley A changed to 200 nA

Range Keithley A changed to 20 nA

Range Keithley A changed to 200 nA

Range Keithley A changed to 20 nA

Range Keithley A changed to 200 nA

Range Keithley A changed to 200 pA

Range Keithley A changed to 20 nA

Range Keithley A changed to 200 pA

Range Keithley A changed to 20 nA

Range Keithley A changed to 200 pA

Range Keithley A changed to 20 nA

Range Keithley A changed to 200 pA

Range Keithley A changed to 20 nA

Range Keithley A changed to 200 pA

Range Keithley A changed to 20 nA

Range Keithley A changed to 200 pA

Range Keithley A changed to 20 nA

Range Keithley A changed to 200 nA

Range Keithley A changed to 20 nA

Range Keithley A changed to 200 nA

Instrument 3: AMMETER KEITHLEY 6517A C 
Measure type: Current
range type: set range value
range value (ampere):  2 uA
Integration time:  set NPLC value
NPLC value: 10.000
Digital filter count: 2
Vsource: OFF
Output Voltage value: -0.000
Vsource range: 100 V
Trigger source: bus


Range Keithley C changed to 20 uA


Range Keithley C changed to 2 uA


Range Keithley C changed to 20 uA


Range Keithley C changed to 2 uA


________________________________________________________________________________

RelativeTime (msec)	Photon Energy	Var_1	Var_2	INSTR_1_Sample with Bias _(ampere ) 	INSTR_2_Monitor IM_(ampere)  	INSTR_3_Diode A3_(ampere)	I_BPM_sum (Amps)	
________________________________________________________________________________

2.54513000E+5	9.80010492E+1	3.00000000E+0	1.50000000E+1	2.00000000E-12	2.01534000E-8	1.10607200E-5	8.94555467E-5
2.58351000E+5	9.89993878E+1	3.00000000E+0	1.50000000E+1	2.30000000E-12	2.08951000E-8	1.15387800E-5	8.94900786E-5
2.61417000E+5	9.99995713E+1	3.00000000E+0	1.50000000E+1	2.20000000E-12	2.15589000E-8	1.19590900E-5	8.97643792E-5
2.64482000E+5	1.01000302E+2	3.00000000E+0	1.50000000E+1	2.20000000E-12	2.21954000E-8	1.23533400E-5	8.94029128E-5
2.67544000E+5	1.01999865E+2	3.00000000E+0	1.50000000E+1	2.60000000E-12	2.29683000E-8	1.25015500E-5	8.92094629E-5
2.70620000E+5	1.03000439E+2	3.00000000E+0	1.50000000E+1	2.60000000E-12	2.38775000E-8	1.29066800E-5	8.92974930E-5
2.73675000E+5	1.03999714E+2	3.00000000E+0	1.50000000E+1	2.30000000E-12	2.47928000E-8	1.34674800E-5	8.92095732E-5
2.76744000E+5	1.05000533E+2	3.00000000E+0	1.50000000E+1	2.10000000E-12	2.57644000E-8	1.41582900E-5	8.96330314E-5
2.79803000E+5	1.05999984E+2	3.00000000E+0	1.50000000E+1	2.30000000E-12	2.68429000E-8	1.48244700E-5	8.96741259E-5
2.82866000E+5	1.06999691E+2	3.00000000E+0	1.50000000E+1	2.20000000E-12	2.80949000E-8	1.52610400E-5	8.88686763E-5
2.85966000E+5	1.08000698E+2	3.00000000E+0	1.50000000E+1	2.30000000E-12	2.92020000E-8	1.56658500E-5	8.93975484E-5
2.88935000E+5	1.08999861E+2	3.00000000E+0	1.50000000E+1	2.50000000E-12	3.03109000E-8	1.60803100E-5	8.94515949E-5
2.91889000E+5	1.09998533E+2	3.00000000E+0	1.50000000E+1	2.10000000E-12	3.14404000E-8	1.64547300E-5	8.95752716E-5
2.94814000E+5	1.10999926E+2	3.00000000E+0	1.50000000E+1	2.30000000E-12	3.24138000E-8	1.73847700E-5	8.93675374E-5
2.97783000E+5	1.11999659E+2	3.00000000E+0	1.50000000E+1	2.50000000E-12	3.33884000E-8	1.81303400E-5	8.96774727E-5
3.00835000E+5	1.13001475E+2	3.00000000E+0	1.50000000E+1	2.30000000E-12	3.43540000E-8	1.86547500E-5	8.92808127E-5
3.03780000E+5	1.13999860E+2	3.00000000E+0	1.50000000E+1	2.60000000E-12	3.52559000E-8	1.91318600E-5	8.97439199E-5
3.06752000E+5	1.14999120E+2	3.00000000E+0	1.50000000E+1	2.00000000E-12	3.60847000E-8	1.95556800E-5	8.94026148E-5
3.09678000E+5	1.16000866E+2	3.00000000E+0	1.50000000E+1	2.50000000E-12	3.68680000E-8	1.98973800E-5	8.92793792E-5
3.12653000E+5	1.17000342E+2	3.00000000E+0	1.50000000E+1	2.10000000E-12	3.75547000E-8	2.02131900E-5	8.89737027E-5
3.15591000E+5	1.17999592E+2	3.00000000E+0	1.50000000E+1	2.30000000E-12	3.80684000E-8	2.05392200E-5	8.92858224E-5
3.18523000E+5	1.19000707E+2	3.00000000E+0	1.50000000E+1	2.70000000E-12	3.83921000E-8	2.08054300E-5	8.91933100E-5
3.21453000E+5	1.19999940E+2	3.00000000E+0	1.50000000E+1	2.50000000E-12	3.85710000E-8	2.09895700E-5	8.91333299E-5
3.24417000E+5	1.20999649E+2	3.00000000E+0	1.50000000E+1	2.30000000E-12	3.86689000E-8	2.09895700E-5	8.91826855E-5
3.27341000E+5	1.21999142E+2	3.00000000E+0	1.50000000E+1	2.60000000E-12	3.86991000E-8	2.08895700E-5	8.91028212E-5
3.30326000E+5	1.23000691E+2	3.00000000E+0	1.50000000E+1	2.10000000E-12	3.86382000E-8	2.08895700E-5	8.94019621E-5
3.33299000E+5	1.24000588E+2	3.00000000E+0	1.50000000E+1	2.10000000E-12	3.84892000E-8	2.07642000E-5	8.94481170E-5
3.36265000E+5	1.24999681E+2	3.00000000E+0	1.50000000E+1	2.20000000E-12	3.82696000E-8	2.07810800E-5	8.93343078E-5
3.39184000E+5	1.25999969E+2	3.00000000E+0	1.50000000E+1	2.20000000E-12	3.79681000E-8	2.05422800E-5	8.93551456E-5
3.42120000E+5	1.26999231E+2	3.00000000E+0	1.50000000E+1	2.20000000E-12	3.75766000E-8	2.02575500E-5	8.94108342E-5
3.44901000E+5	1.27999261E+2	3.00000000E+0	1.50000000E+1	2.70000000E-12	3.70886000E-8	1.99339700E-5	8.93246072E-5
3.47695000E+5	1.29001457E+2	3.00000000E+0	1.50000000E+1	2.40000000E-12	3.65254000E-8	1.95863500E-5	8.94427794E-5
3.50498000E+5	1.29999436E+2	3.00000000E+0	1.50000000E+1	2.20000000E-12	3.58883000E-8	1.92159400E-5	8.91801762E-5
3.53299000E+5	1.31000496E+2	3.00000000E+0	1.50000000E+1	2.10000000E-12	3.51638000E-8	1.88132700E-5	8.94568669E-5
3.56119000E+5	1.32000610E+2	3.00000000E+0	1.50000000E+1	2.30000000E-12	3.43496000E-8	1.83776400E-5	8.93331992E-5
3.59777000E+5	1.33000392E+2	3.00000000E+0	1.50000000E+1	2.10000000E-12	3.34390000E-8	1.79044200E-5	8.93353509E-5
3.62567000E+5	1.33998834E+2	3.00000000E+0	1.50000000E+1	2.50000000E-12	3.24538000E-8	1.73997800E-5	8.91748207E-5
3.65384000E+5	1.35000856E+2	3.00000000E+0	1.50000000E+1	2.40000000E-12	3.14015000E-8	1.68663600E-5	8.91945468E-5
3.68169000E+5	1.35999403E+2	3.00000000E+0	1.50000000E+1	1.90000000E-12	3.03103000E-8	1.63185500E-5	8.91692864E-5
3.70988000E+5	1.37000254E+2	3.00000000E+0	1.50000000E+1	2.30000000E-12	2.91867000E-8	1.57593300E-5	8.91289072E-5
3.73796000E+5	1.38000183E+2	3.00000000E+0	1.50000000E+1	2.40000000E-12	2.80306000E-8	1.51846600E-5	8.90015708E-5
3.76554000E+5	1.38999600E+2	3.00000000E+0	1.50000000E+1	2.20000000E-12	2.68084000E-8	1.45705300E-5	8.92778265E-5
3.79344000E+5	1.40000049E+2	3.00000000E+0	1.50000000E+1	2.30000000E-12	2.55074000E-8	1.39033600E-5	8.92782854E-5
3.82152000E+5	1.41000130E+2	3.00000000E+0	1.50000000E+1	2.00000000E-12	2.41362000E-8	1.31926200E-5	8.90915232E-5
3.84958000E+5	1.42000694E+2	3.00000000E+0	1.50000000E+1	2.00000000E-12	2.26730000E-8	1.24248800E-5	8.92490225E-5
3.87804000E+5	1.42999843E+2	3.00000000E+0	1.50000000E+1	2.20000000E-12	2.11631000E-8	1.16291400E-5	8.91842025E-5
3.90604000E+5	1.44000483E+2	3.00000000E+0	1.50000000E+1	2.20000000E-12	1.96165000E-8	1.08088200E-5	8.92583685E-5
3.93418000E+5	1.44998265E+2	3.00000000E+0	1.50000000E+1	2.20000000E-12	1.80763000E-8	9.98236000E-6	8.93655198E-5
3.96243000E+5	1.46001082E+2	3.00000000E+0	1.50000000E+1	2.20000000E-12	1.65419000E-8	9.14901000E-6	8.88583736E-5
3.99051000E+5	1.46999608E+2	3.00000000E+0	1.50000000E+1	2.30000000E-12	1.50944000E-8	8.35825000E-6	8.91222851E-5
4.01863000E+5	1.48000206E+2	3.00000000E+0	1.50000000E+1	2.30000000E-12	1.37360000E-8	7.61200000E-6	8.90017318E-5
4.04701000E+5	1.49000543E+2	3.00000000E+0	1.50000000E+1	2.30000000E-12	1.24658000E-8	6.91321000E-6	8.89477061E-5
4.07567000E+5	1.49998976E+2	3.00000000E+0	1.50000000E+1	2.30000000E-12	1.13188000E-8	6.28003000E-6	8.91369419E-5
4.11012000E+5	1.50968188E+2	3.00000000E+0	1.50000000E+1	2.50000000E-12	1.00118000E-8	5.56422000E-6	8.90408980E-5
4.14513000E+5	1.52024528E+2	3.00000000E+0	1.50000000E+1	2.30000000E-12	9.30440000E-9	5.17684000E-6	8.89648544E-5
4.18051000E+5	1.53006084E+2	3.00000000E+0	1.50000000E+1	2.30000000E-12	8.59210000E-9	4.78651000E-6	8.95721274E-5
4.21543000E+5	1.54003578E+2	3.00000000E+0	1.50000000E+1	2.30000000E-12	7.90060000E-9	4.40582000E-6	8.91880172E-5
4.25025000E+5	1.54998656E+2	3.00000000E+0	1.50000000E+1	2.30000000E-12	7.26340000E-9	4.05116000E-6	8.95247715E-5
4.28494000E+5	1.55998766E+2	3.00000000E+0	1.50000000E+1	2.00000000E-12	6.74050000E-9	3.76006000E-6	8.88328092E-5
4.32009000E+5	1.56997954E+2	3.00000000E+0	1.50000000E+1	2.00000000E-12	6.26370000E-9	3.49466000E-6	8.94151317E-5
4.35482000E+5	1.57999923E+2	3.00000000E+0	1.50000000E+1	2.50000000E-12	5.84210000E-9	3.25863000E-6	8.94861417E-5
4.38994000E+5	1.58995327E+2	3.00000000E+0	1.50000000E+1	2.20000000E-12	5.44710000E-9	3.03180000E-6	8.90723722E-5
4.42506000E+5	1.59998213E+2	3.00000000E+0	1.50000000E+1	2.00000000E-12	5.10720000E-9	2.83363000E-6	8.94310909E-5
4.46031000E+5	1.60995057E+2	3.00000000E+0	1.50000000E+1	2.30000000E-12	4.85340000E-9	2.68308000E-6	8.88323949E-5
4.49542000E+5	1.61998943E+2	3.00000000E+0	1.50000000E+1	2.30000000E-12	4.60280000E-9	2.54081000E-6	8.90436606E-5
4.53020000E+5	1.63006857E+2	3.00000000E+0	1.50000000E+1	2.20000000E-12	4.30300000E-9	2.38607000E-6	8.90932070E-5
4.56540000E+5	1.64001953E+2	3.00000000E+0	1.50000000E+1	2.20000000E-12	3.98580000E-9	2.21949000E-6	8.92494040E-5
4.60060000E+5	1.65004887E+2	3.00000000E+0	1.50000000E+1	2.90000000E-12	3.65200000E-9	2.03496000E-6	8.89044301E-5
4.63567000E+5	1.65999729E+2	3.00000000E+0	1.50000000E+1	2.30000000E-12	3.32200000E-9	1.84970000E-6	8.90388327E-5
4.67045000E+5	1.66998146E+2	3.00000000E+0	1.50000000E+1	2.10000000E-12	3.04340000E-9	1.69244000E-6	8.90134918E-5
4.70522000E+5	1.67998482E+2	3.00000000E+0	1.50000000E+1	2.10000000E-12	2.81280000E-9	1.56119000E-6	8.90476124E-5
4.74031000E+5	1.68997428E+2	3.00000000E+0	1.50000000E+1	2.40000000E-12	2.62260000E-9	1.45323000E-6	8.93358903E-5
4.77523000E+5	1.69995600E+2	3.00000000E+0	1.50000000E+1	2.00000000E-12	2.46500000E-9	1.36504000E-6	8.92126696E-5
4.81024000E+5	1.70997053E+2	3.00000000E+0	1.50000000E+1	2.20000000E-12	2.34600000E-9	1.29912000E-6	8.95950484E-5
4.84507000E+5	1.71996774E+2	3.00000000E+0	1.50000000E+1	2.20000000E-12	2.26060000E-9	1.25166000E-6	8.95690846E-5
4.87990000E+5	1.73004745E+2	3.00000000E+0	1.50000000E+1	2.40000000E-12	2.16650000E-9	1.19883000E-6	8.98011613E-5
4.91465000E+5	1.74005446E+2	3.00000000E+0	1.50000000E+1	2.10000000E-12	2.05250000E-9	1.13465000E-6	8.96722662E-5
4.94941000E+5	1.75004393E+2	3.00000000E+0	1.50000000E+1	2.40000000E-12	1.93110000E-9	1.06657000E-6	8.90212374E-5
4.98453000E+5	1.76001139E+2	3.00000000E+0	1.50000000E+1	2.60000000E-12	1.80940000E-9	9.98730000E-7	8.95778524E-5
5.01889000E+5	1.77000712E+2	3.00000000E+0	1.50000000E+1	2.40000000E-12	1.70750000E-9	9.42370000E-7	8.94306260E-5
5.05370000E+5	1.77997640E+2	3.00000000E+0	1.50000000E+1	2.00000000E-12	1.63270000E-9	9.01150000E-7	8.94246387E-5
5.08810000E+5	1.78997067E+2	3.00000000E+0	1.50000000E+1	2.00000000E-12	1.57650000E-9	8.70490000E-7	8.97852349E-5
5.12294000E+5	1.80000290E+2	3.00000000E+0	1.50000000E+1	2.10000000E-12	1.53180000E-9	8.45950000E-7	8.93009829E-5
5.15785000E+5	1.80993990E+2	3.00000000E+0	1.50000000E+1	2.20000000E-12	1.49670000E-9	8.26850000E-7	8.93220472E-5
5.19252000E+5	1.81995353E+2	3.00000000E+0	1.50000000E+1	2.30000000E-12	1.47420000E-9	8.14690000E-7	8.96186399E-5
5.23436000E+5	1.82998273E+2	3.00000000E+0	1.50000000E+1	2.50000000E-12	1.45690000E-9	8.05500000E-7	8.92352151E-5
5.26903000E+5	1.84005926E+2	3.00000000E+0	1.50000000E+1	2.30000000E-12	1.43230000E-9	7.92130000E-7	8.91287761E-5
5.30398000E+5	1.85002506E+2	3.00000000E+0	1.50000000E+1	2.40000000E-12	1.40500000E-9	7.77350000E-7	8.95498532E-5
5.33858000E+5	1.86008754E+2	3.00000000E+0	1.50000000E+1	2.00000000E-12	1.37540000E-9	7.61420000E-7	8.97881704E-5
5.37332000E+5	1.87001927E+2	3.00000000E+0	1.50000000E+1	2.50000000E-12	1.34870000E-9	7.46960000E-7	8.93009948E-5
5.40779000E+5	1.87995633E+2	3.00000000E+0	1.50000000E+1	2.10000000E-12	1.33150000E-9	7.37870000E-7	8.92151134E-5
5.44223000E+5	1.88998447E+2	3.00000000E+0	1.50000000E+1	2.10000000E-12	1.32040000E-9	7.32280000E-7	8.95347642E-5
5.47677000E+5	1.89998388E+2	3.00000000E+0	1.50000000E+1	2.60000000E-12	1.31370000E-9	7.29070000E-7	8.91880321E-5
5.51140000E+5	1.90998239E+2	3.00000000E+0	1.50000000E+1	2.20000000E-12	1.30990000E-9	7.27420000E-7	8.95993131E-5
5.54618000E+5	1.91993717E+2	3.00000000E+0	1.50000000E+1	2.10000000E-12	1.31060000E-9	7.28310000E-7	8.95071434E-5
5.58081000E+5	1.92991427E+2	3.00000000E+0	1.50000000E+1	2.30000000E-12	1.31710000E-9	7.32470000E-7	8.94309121E-5
5.61535000E+5	1.94012253E+2	3.00000000E+0	1.50000000E+1	2.20000000E-12	1.31970000E-9	7.34370000E-7	8.92804669E-5
